# Gaussian spectral response function from specification
# Band 4 => wavelength center = 845 nm / FWHM = 89 nm
697     0.000
698     0.001
699     0.001
700     0.001
701     0.001
702     0.001
703     0.001
704     0.001
705     0.001
706     0.001
707     0.001
708     0.001
709     0.002
710     0.002
711     0.002
712     0.002
713     0.002
714     0.002
715     0.003
716     0.003
717     0.003
718     0.004
719     0.004
720     0.004
721     0.005
722     0.005
723     0.005
724     0.006
725     0.006
726     0.007
727     0.008
728     0.008
729     0.009
730     0.010
731     0.011
732     0.011
733     0.012
734     0.013
735     0.014
736     0.016
737     0.017
738     0.018
739     0.020
740     0.021
741     0.023
742     0.024
743     0.026
744     0.028
745     0.030
746     0.032
747     0.035
748     0.037
749     0.040
750     0.042
751     0.045
752     0.048
753     0.052
754     0.055
755     0.059
756     0.063
757     0.066
758     0.071
759     0.075
760     0.080
761     0.085
762     0.090
763     0.095
764     0.101
765     0.106
766     0.113
767     0.119
768     0.126
769     0.132
770     0.140
771     0.147
772     0.155
773     0.163
774     0.171
775     0.180
776     0.189
777     0.198
778     0.208
779     0.218
780     0.228
781     0.238
782     0.249
783     0.260
784     0.272
785     0.284
786     0.296
787     0.308
788     0.321
789     0.334
790     0.347
791     0.360
792     0.374
793     0.388
794     0.402
795     0.417
796     0.432
797     0.446
798     0.462
799     0.477
800     0.492
801     0.508
802     0.524
803     0.539
804     0.555
805     0.571
806     0.587
807     0.603
808     0.619
809     0.635
810     0.651
811     0.667
812     0.683
813     0.699
814     0.714
815     0.730
816     0.745
817     0.760
818     0.775
819     0.789
820     0.804
821     0.817
822     0.831
823     0.844
824     0.857
825     0.869
826     0.881
827     0.893
828     0.904
829     0.914
830     0.924
831     0.934
832     0.943
833     0.951
834     0.959
835     0.966
836     0.972
837     0.978
838     0.983
839     0.987
840     0.991
841     0.994
842     0.997
843     0.999
844     1.000
845     1.000
846     1.000
847     0.999
848     0.997
849     0.994
850     0.991
851     0.987
852     0.983
853     0.978
854     0.972
855     0.966
856     0.959
857     0.951
858     0.943
859     0.934
860     0.924
861     0.914
862     0.904
863     0.893
864     0.881
865     0.869
866     0.857
867     0.844
868     0.831
869     0.817
870     0.804
871     0.789
872     0.775
873     0.760
874     0.745
875     0.730
876     0.714
877     0.699
878     0.683
879     0.667
880     0.651
881     0.635
882     0.619
883     0.603
884     0.587
885     0.571
886     0.555
887     0.539
888     0.524
889     0.508
890     0.492
891     0.477
892     0.462
893     0.446
894     0.432
895     0.417
896     0.402
897     0.388
898     0.374
899     0.360
900     0.347
901     0.334
902     0.321
903     0.308
904     0.296
905     0.284
906     0.272
907     0.260
908     0.249
909     0.238
910     0.228
911     0.218
912     0.208
913     0.198
914     0.189
915     0.180
916     0.171
917     0.163
918     0.155
919     0.147
920     0.140
921     0.132
922     0.126
923     0.119
924     0.113
925     0.106
926     0.101
927     0.095
928     0.090
929     0.085
930     0.080
931     0.075
932     0.071
933     0.066
934     0.063
935     0.059
936     0.055
937     0.052
938     0.048
939     0.045
940     0.042
941     0.040
942     0.037
943     0.035
944     0.032
945     0.030
946     0.028
947     0.026
948     0.024
949     0.023
950     0.021
951     0.020
952     0.018
953     0.017
954     0.016
955     0.014
956     0.013
957     0.012
958     0.011
959     0.011
960     0.010
961     0.009
962     0.008
963     0.008
964     0.007
965     0.006
966     0.006
967     0.005
968     0.005
969     0.005
970     0.004
971     0.004
972     0.004
973     0.003
974     0.003
975     0.003
976     0.002
977     0.002
978     0.002
979     0.002
980     0.002
981     0.002
982     0.001
983     0.001
984     0.001
985     0.001
986     0.001
987     0.001
988     0.001
989     0.001
990     0.001
991     0.001
992     0.001
993     0.000
