# extracted from http://envisat.esa.int/handbooks/aatsr/aux-files/consolidatedsrfs.xls
# AATSR Flight Model FPA #2 12um channel (AuSpace measuremets).
# Wavelength Response
11023.855000 0.00000
11033.182000 0.00005
11042.509000 0.00010
11051.836000 0.00013
11061.163000 0.00015
11070.490000 0.00011
11079.818000 0.00023
11089.145000 0.00044
11098.472000 0.00058
11107.799000 0.00083
11117.126000 0.00117
11126.453000 0.00157
11135.780000 0.00218
11145.107000 0.00306
11154.434000 0.00383
11163.761000 0.00479
11173.089000 0.00604
11182.416000 0.00772
11191.743000 0.00936
11201.070000 0.01167
11210.397000 0.01421
11219.724000 0.01616
11229.051000 0.01929
11238.378000 0.02317
11247.705000 0.02571
11257.032000 0.02977
11266.360000 0.03359
11275.687000 0.03703
11285.014000 0.04212
11294.341000 0.04783
11303.668000 0.05337
11312.995000 0.05817
11322.322000 0.06324
11331.649000 0.07084
11340.976000 0.07690
11350.303000 0.08341
11359.631000 0.09132
11368.958000 0.09981
11378.285000 0.10808
11387.612000 0.11901
11396.939000 0.12728
11406.266000 0.14115
11415.593000 0.15177
11424.920000 0.16208
11434.247000 0.17395
11443.574000 0.19186
11452.902000 0.20483
11462.229000 0.21745
11471.556000 0.24027
11480.883000 0.25940
11490.210000 0.27394
11499.537000 0.29087
11508.864000 0.31268
11518.191000 0.34010
11527.518000 0.36351
11536.845000 0.38524
11546.173000 0.39727
11555.500000 0.43552
11564.827000 0.47296
11574.154000 0.49639
11583.481000 0.52745
11592.808000 0.55012
11602.135000 0.57532
11611.462000 0.60537
11620.789000 0.64470
11630.116000 0.66433
11639.444000 0.69644
11648.771000 0.70706
11658.098000 0.75627
11667.425000 0.84552
11676.752000 0.84775
11686.079000 0.80343
11695.406000 0.85302
11704.733000 0.87390
11714.060000 0.85701
11723.387000 0.90228
11732.715000 0.90525
11742.042000 0.90884
11751.369000 0.92916
11760.696000 0.95661
11770.023000 0.94340
11779.350000 0.99863
11788.677000 0.98577
11798.004000 0.93741
11807.331000 0.93180
11816.658000 0.93541
11825.986000 0.95493
11835.313000 0.94366
11844.640000 0.89969
11853.967000 0.93047
11863.294000 0.94853
11872.621000 0.94952
11881.948000 0.90322
11891.275000 0.89247
11900.602000 0.92398
11909.929000 0.91428
11919.257000 0.89727
11928.584000 0.90053
11937.911000 0.91938
11947.238000 0.90899
11956.565000 0.90738
11965.892000 0.89388
11975.219000 0.91193
11984.546000 0.87766
11993.873000 0.90069
12003.200000 0.87824
12012.528000 0.89732
12021.855000 0.89851
12031.182000 0.90728
12040.509000 0.90034
12049.836000 0.89415
12059.163000 0.88452
12068.490000 0.83927
12077.817000 0.92570
12087.144000 0.89569
12096.471000 0.86865
12105.799000 0.88067
12115.126000 0.91540
12124.453000 0.91474
12133.780000 0.93118
12143.107000 0.89670
12152.434000 0.93849
12161.761000 0.89968
12171.088000 0.87399
12180.415000 0.95690
12189.742000 0.99941
12199.070000 0.96435
12208.397000 0.86423
12217.724000 1.00000
12227.051000 0.91557
12236.378000 0.94900
12245.705000 0.93172
12255.032000 0.95291
12264.359000 0.95388
12273.686000 0.99468
12283.013000 0.88151
12292.341000 0.98603
12301.668000 0.86244
12310.995000 0.89999
12320.322000 0.91813
12329.649000 0.90372
12338.976000 0.87760
12348.303000 0.86870
12357.630000 0.86445
12366.957000 0.82220
12376.284000 0.83785
12385.612000 0.80269
12394.939000 0.77462
12404.266000 0.71862
12413.593000 0.74697
12422.920000 0.71044
12432.247000 0.67130
12441.574000 0.66259
12450.901000 0.60768
12460.228000 0.57584
12469.555000 0.56037
12478.883000 0.54150
12488.210000 0.47689
12497.537000 0.50569
12506.864000 0.47015
12516.191000 0.42380
12525.518000 0.42528
12534.845000 0.41850
12544.172000 0.37703
12553.499000 0.36005
12562.826000 0.33102
12572.154000 0.30819
12581.481000 0.29893
12590.808000 0.29149
12600.135000 0.24750
12609.462000 0.26266
12618.789000 0.23964
12628.116000 0.22905
12637.443000 0.22298
12646.770000 0.19598
12656.097000 0.18589
12665.425000 0.17299
12674.752000 0.16377
12684.079000 0.15945
12693.406000 0.15247
12702.733000 0.14793
12712.060000 0.13586
12721.387000 0.13236
12730.714000 0.11615
12740.041000 0.10819
12749.368000 0.10673
12758.696000 0.09624
12768.023000 0.09048
12777.350000 0.08737
12786.677000 0.08318
12796.004000 0.07976
12805.331000 0.07120
12814.658000 0.06416
12823.985000 0.06313
12833.312000 0.06368
12842.639000 0.05518
12851.967000 0.05150
12861.294000 0.04984
12870.621000 0.04434
12879.948000 0.04511
12889.275000 0.04292
12898.602000 0.03744
12907.929000 0.03677
12917.256000 0.03506
12926.583000 0.03157
12935.910000 0.03167
12945.238000 0.02877
12954.565000 0.02596
12963.892000 0.02618
12973.219000 0.02283
12982.546000 0.02232
12991.873000 0.02276
13001.200000 0.02058
13010.527000 0.01894
13019.854000 0.01776
13029.181000 0.01723
13038.509000 0.01651
13047.836000 0.01634
13057.163000 0.01596
13066.490000 0.01457
13075.817000 0.01461
13085.144000 0.01461
13094.471000 0.01323
13103.798000 0.01157
13113.125000 0.01198
13122.452000 0.01199
13131.780000 0.01051
13141.107000 0.00996
13150.434000 0.01056
13159.761000 0.01079
13169.088000 0.00891
13178.415000 0.00925
13187.742000 0.00921
13197.069000 0.00891
13206.396000 0.00815
13215.723000 0.00771
13225.051000 0.00674
13234.378000 0.00663
13243.705000 0.00688
13253.032000 0.00589
13262.359000 0.00686
13271.686000 0.00619
13281.013000 0.00561
13290.340000 0.00582
13299.667000 0.00543
13308.994000 0.00531
13318.322000 0.00562
13327.649000 0.00538
13336.976000 0.00483
13346.303000 0.00510
13355.630000 0.00489
13364.957000 0.00490
13374.284000 0.00456
13383.611000 0.00402
13392.938000 0.00451
