# extracted from http://envisat.esa.int/handbooks/aatsr/aux-files/consolidatedsrfs.xls
# AATSR Flight Model FPA #2 1.6um channel (AuSpace measuremets).
# Wavelength Response
1447.824000 0.00001
1449.117000 0.00001
1450.410000 0.00001
1451.704000 0.00001
1452.997000 0.00000
1454.291000 0.00000
1455.584000 0.00000
1456.878000 0.00000
1458.171000 0.00000
1459.464000 0.00000
1460.758000 0.00000
1462.051000 0.00000
1463.345000 0.00000
1464.638000 0.00000
1465.931000 0.00000
1467.225000 0.00000
1468.518000 0.00000
1469.812000 0.00000
1471.105000 0.00001
1472.399000 0.00000
1473.692000 0.00001
1474.985000 0.00001
1476.279000 0.00002
1477.572000 0.00003
1478.866000 0.00005
1480.159000 0.00007
1481.453000 0.00010
1482.746000 0.00010
1484.039000 0.00014
1485.333000 0.00017
1486.626000 0.00017
1487.920000 0.00018
1489.213000 0.00018
1490.506000 0.00020
1491.800000 0.00029
1493.093000 0.00045
1494.387000 0.00067
1495.680000 0.00073
1496.974000 0.00073
1498.267000 0.00076
1499.560000 0.00085
1500.854000 0.00092
1502.147000 0.00095
1503.441000 0.00108
1504.734000 0.00110
1506.027000 0.00119
1507.321000 0.00143
1508.614000 0.00152
1509.908000 0.00177
1511.201000 0.00188
1512.495000 0.00210
1513.788000 0.00239
1515.081000 0.00253
1516.375000 0.00277
1517.668000 0.00319
1518.962000 0.00357
1520.255000 0.00387
1521.549000 0.00449
1522.842000 0.00494
1524.135000 0.00573
1525.429000 0.00638
1526.722000 0.00741
1528.016000 0.00852
1529.309000 0.00989
1530.602000 0.01171
1531.896000 0.01381
1533.189000 0.01649
1534.483000 0.01957
1535.776000 0.02350
1537.070000 0.02826
1538.363000 0.03387
1539.656000 0.04111
1540.950000 0.05009
1542.243000 0.06101
1543.537000 0.07446
1544.830000 0.09107
1546.124000 0.11047
1547.417000 0.13143
1548.710000 0.15509
1550.004000 0.18169
1551.297000 0.21050
1552.591000 0.24100
1553.884000 0.27164
1555.177000 0.30122
1556.471000 0.33446
1557.764000 0.36986
1559.058000 0.40497
1560.351000 0.44161
1561.645000 0.47867
1562.938000 0.51617
1564.231000 0.55151
1565.525000 0.58882
1566.818000 0.62886
1568.112000 0.66566
1569.405000 0.70495
1570.698000 0.74698
1571.992000 0.78266
1573.285000 0.81873
1574.579000 0.85700
1575.872000 0.88899
1577.166000 0.91736
1578.459000 0.94384
1579.752000 0.96339
1581.046000 0.97886
1582.339000 0.99052
1583.633000 0.99534
1584.926000 0.99935
1586.220000 0.99997
1587.513000 0.99874
1588.806000 1.00000
1590.100000 0.99492
1591.393000 0.98939
1592.687000 0.98500
1593.980000 0.98067
1595.273000 0.97274
1596.567000 0.96300
1597.860000 0.95380
1599.154000 0.94267
1600.447000 0.93150
1601.741000 0.91502
1603.034000 0.89402
1604.327000 0.87956
1605.621000 0.86260
1606.914000 0.84387
1608.208000 0.82207
1609.501000 0.80038
1610.794000 0.78011
1612.088000 0.76009
1613.381000 0.73700
1614.675000 0.71177
1615.968000 0.68754
1617.262000 0.66412
1618.555000 0.63725
1619.848000 0.61077
1621.142000 0.58320
1622.435000 0.55455
1623.729000 0.52648
1625.022000 0.49739
1626.316000 0.46646
1627.609000 0.43473
1628.902000 0.40106
1630.196000 0.36762
1631.489000 0.33449
1632.783000 0.30209
1634.076000 0.27078
1635.369000 0.23981
1636.663000 0.21227
1637.956000 0.18632
1639.250000 0.16149
1640.543000 0.13890
1641.837000 0.11880
1643.130000 0.10048
1644.423000 0.08514
1645.717000 0.07215
1647.010000 0.06122
1648.304000 0.05226
1649.597000 0.04460
1650.891000 0.03803
1652.184000 0.03271
1653.477000 0.02857
1654.771000 0.02490
1656.064000 0.02191
1657.358000 0.01922
1658.651000 0.01697
1659.944000 0.01507
1661.238000 0.01328
1662.531000 0.01183
1663.825000 0.01075
1665.118000 0.00974
1666.412000 0.00875
1667.705000 0.00797
1668.998000 0.00712
1670.292000 0.00649
1671.585000 0.00604
1672.879000 0.00539
1674.172000 0.00504
1675.465000 0.00468
1676.759000 0.00432
1678.052000 0.00388
1679.346000 0.00360
1680.639000 0.00331
1681.933000 0.00301
1683.226000 0.00283
1684.519000 0.00271
1685.813000 0.00241
1687.106000 0.00224
1688.400000 0.00205
1689.693000 0.00181
1690.987000 0.00177
1692.280000 0.00169
1693.573000 0.00156
1694.867000 0.00150
1696.160000 0.00142
1697.454000 0.00132
1698.747000 0.00128
1700.040000 0.00127
1701.334000 0.00125
1702.627000 0.00117
1703.921000 0.00095
1705.214000 0.00080
1706.508000 0.00067
1707.801000 0.00053
1709.094000 0.00050
1710.388000 0.00049
1711.681000 0.00048
1712.975000 0.00048
1714.268000 0.00047
1715.562000 0.00048
1716.855000 0.00047
1718.148000 0.00045
1719.442000 0.00043
1720.735000 0.00042
1722.029000 0.00040
1723.322000 0.00034
1724.615000 0.00031
1725.909000 0.00030
1727.202000 0.00027
1728.496000 0.00025
1729.789000 0.00024
1731.083000 0.00024
1732.376000 0.00024
1733.669000 0.00024
1734.963000 0.00023
1736.256000 0.00024
1737.550000 0.00024
1738.843000 0.00024
1740.137000 0.00024
1741.430000 0.00024
1742.723000 0.00024
1744.017000 0.00025
1745.310000 0.00025
1746.604000 0.00025
1747.897000 0.00025
1749.190000 0.00025
1750.484000 0.00026
1751.777000 0.00026
1753.071000 0.00026
1754.364000 0.00026
1755.658000 0.00027
1756.951000 0.00027
1758.244000 0.00027
1759.538000 0.00027
1760.831000 0.00027
1762.125000 0.00028
1763.418000 0.00028
1764.711000 0.00028
1766.005000 0.00028
1767.298000 0.00028
1768.592000 0.00028
1769.885000 0.00029
1771.179000 0.00029
1772.472000 0.00029
1773.765000 0.00029
1775.059000 0.00028
1776.352000 0.00030
