# MODIS AQUA relative spectral response function
# (see http://mcst.gsfc.nasa.gov/calibration/parameters)
# converted from ftp://mcst.ssaihq.com/pub/permanent/MCST/Aqua_IB_OOB_Merged_RSR
# 
# LAMBDA   RSR
# 
 9000.00 0.0009060000000000
 9100.00 0.0017600000000000
 9200.00 0.0035000000000000
 9300.00 0.0117000000000000
 9315.20 0.0100000000000000
 9339.90 0.0136900000000000
 9369.60 0.0206300000000000
 9399.70 0.0304700000000000
 9429.60 0.0439300000000000
 9459.60 0.0641800000000000
 9489.70 0.0944300000000000
 9519.90 0.1492500000000000
 9549.70 0.2420700000000000
 9579.80 0.3899600000000000
 9609.80 0.5824000000000000
 9639.70 0.7880800000000000
 9669.70 0.9473700000000000
 9699.70 1.0000000000000000
 9729.60 0.9508100000000000
 9759.90 0.8538400000000000
 9789.90 0.7593500000000000
 9819.90 0.7093100000000000
 9849.90 0.6425400000000000
 9879.80 0.4961100000000000
 9909.60 0.2961300000000000
 9939.60 0.1340500000000000
 9969.60 0.0538900000000000
 9999.90 0.0207000000000000
10023.00 0.0100000000000000
10100.00 0.0000609000000000
