# MODIS AQUA relative spectral response function
# (see http://mcst.gsfc.nasa.gov/calibration/parameters)
# converted from ftp://mcst.ssaihq.com/pub/permanent/MCST/Aqua_IB_OOB_Merged_RSR
# 
# LAMBDA   RSR
# 
 4200.00 0.0008990000000000
 4250.00 0.0016200000000000
 4300.00 0.0037900000000000
 4348.40 0.0100000000000000
 4349.50 0.0106300000000000
 4354.60 0.0153600000000000
 4359.60 0.0214400000000000
 4364.60 0.0307100000000000
 4369.70 0.0433900000000000
 4374.70 0.0622800000000000
 4379.60 0.0900000000000000
 4384.60 0.1331200000000000
 4389.60 0.1992000000000000
 4394.60 0.2967600000000000
 4399.60 0.4251700000000000
 4404.60 0.5829800000000001
 4409.70 0.7418500000000000
 4414.50 0.8626500000000000
 4419.60 0.9293900000000000
 4424.60 0.9529700000000000
 4429.50 0.9566500000000000
 4434.60 0.9668700000000000
 4439.60 0.9807399999999999
 4444.50 0.9879100000000000
 4449.50 0.9883200000000000
 4454.50 0.9882300000000001
 4459.50 0.9948700000000000
 4464.50 1.0000000000000000
 4469.50 0.9964400000000000
 4474.60 0.9828800000000000
 4479.60 0.9357300000000000
 4484.50 0.8517900000000000
 4489.50 0.7237200000000000
 4494.60 0.5483100000000000
 4499.60 0.3640400000000000
 4504.50 0.2199600000000000
 4509.50 0.1272100000000000
 4514.50 0.0773100000000000
 4519.60 0.0501800000000000
 4524.60 0.0337100000000000
 4529.50 0.0242600000000000
 4534.50 0.0178000000000000
 4539.70 0.0133900000000000
 4544.30 0.0100000000000000
 4550.00 0.0114000000000000
 4600.00 0.0007570000000000
