# MODIS AQUA relative spectral response function
# (see http://mcst.gsfc.nasa.gov/calibration/parameters)
# converted from ftp://mcst.ssaihq.com/pub/permanent/MCST/Aqua_IB_OOB_Merged_RSR
# 
# LAMBDA   RSR
# 
 1180.00 0.0002730000000000
 1200.00 0.0013200000000000
 1213.30 0.0100000000000000
 1214.70 0.0145600000000000
 1216.20 0.0215300000000000
 1217.70 0.0311600000000000
 1219.20 0.0451600000000000
 1220.70 0.0657500000000000
 1222.20 0.0972300000000000
 1223.70 0.1423700000000000
 1225.20 0.2026500000000000
 1226.70 0.2847800000000000
 1228.20 0.3824600000000000
 1229.70 0.4840100000000000
 1231.20 0.5955200000000000
 1232.70 0.7205700000000000
 1234.20 0.8167600000000000
 1235.70 0.8748300000000000
 1237.20 0.9395800000000000
 1238.70 0.9805199999999999
 1240.20 0.9862300000000001
 1241.70 0.9872300000000001
 1243.20 1.0000000000000000
 1244.70 0.9838800000000000
 1246.20 0.9378800000000000
 1247.70 0.8839700000000000
 1249.20 0.8154800000000000
 1250.70 0.7123000000000000
 1252.20 0.5968200000000000
 1253.70 0.4613000000000000
 1255.20 0.3229700000000000
 1256.70 0.2348800000000000
 1258.20 0.1726100000000000
 1259.70 0.1135700000000000
 1261.20 0.0689900000000000
 1262.70 0.0504000000000000
 1264.20 0.0398600000000000
 1265.70 0.0301200000000000
 1267.20 0.0196800000000000
 1268.70 0.0143200000000000
 1270.20 0.0116500000000000
 1271.30 0.0100000000000000
 1280.00 0.0034100000000000
 1300.00 0.0002460000000000
 1320.00 0.0000025200000000
 1340.00 0.0000043600000000
 1360.00 0.0000065400000000
 1380.00 0.0000049400000000
 1400.00 0.0000009590000000
 1420.00 0.0000269000000000
 1440.00 0.0000839000000000
 1460.00 0.0000618000000000
 1480.00 0.0000333000000000
 1500.00 0.0000332000000000
 1520.00 0.0000316000000000
 1540.00 0.0000408000000000
 1560.00 0.0002730000000000
 1580.00 0.0000842000000000
 1600.00 0.0002340000000000
 1620.00 0.0010400000000000
 1640.00 0.0004850000000000
