# MODIS AQUA relative spectral response function
# (see http://mcst.gsfc.nasa.gov/calibration/parameters)
# converted from ftp://mcst.ssaihq.com/pub/permanent/MCST/Aqua_IB_OOB_Merged_RSR
# 
# LAMBDA   RSR
# 
 6800.00 0.0008210000000000
 6850.00 0.0016100000000000
 6900.00 0.0033500000000000
 6950.00 0.0078800000000000
 7000.00 0.0201000000000000
 7006.30 0.0100000000000000
 7020.10 0.0128100000000000
 7035.10 0.0175100000000000
 7050.10 0.0237600000000000
 7065.10 0.0339200000000000
 7080.10 0.0486400000000000
 7095.20 0.0707700000000000
 7110.20 0.1036400000000000
 7125.20 0.1527100000000000
 7140.20 0.2189500000000000
 7155.10 0.3006100000000000
 7170.10 0.3936000000000000
 7185.10 0.4915600000000000
 7200.10 0.5866500000000000
 7215.10 0.6860800000000000
 7230.20 0.7764900000000000
 7245.20 0.8563400000000000
 7260.20 0.9173500000000000
 7275.20 0.9594400000000000
 7290.20 0.9884800000000000
 7305.10 1.0000000000000000
 7320.10 0.9929900000000000
 7335.10 0.9811299999999999
 7350.20 0.9683700000000000
 7365.10 0.9560000000000000
 7380.20 0.9481200000000000
 7395.10 0.9435000000000000
 7410.10 0.9385900000000000
 7425.10 0.9407400000000000
 7440.10 0.9338600000000000
 7455.10 0.8944600000000000
 7470.20 0.8216000000000000
 7485.10 0.7166600000000000
 7500.10 0.5856000000000000
 7515.10 0.4578300000000000
 7530.10 0.3459300000000000
 7545.10 0.2619000000000000
 7560.10 0.1969700000000000
 7575.10 0.1482000000000000
 7590.10 0.1103200000000000
 7605.10 0.0790400000000000
 7620.10 0.0566700000000000
 7635.10 0.0403100000000000
 7650.10 0.0274800000000000
 7665.20 0.0183800000000000
 7680.10 0.0120500000000000
 7687.20 0.0100000000000000
 7700.00 0.0179000000000000
 7750.00 0.0083000000000000
 7800.00 0.0040000000000000
 7850.00 0.0020500000000000
 7900.00 0.0012600000000000
 7950.00 0.0011600000000000
 8000.00 0.0010900000000000
 8100.00 0.0007150000000000
