# MODIS AQUA relative spectral response function
# (see http://mcst.gsfc.nasa.gov/calibration/parameters)
# converted from ftp://mcst.ssaihq.com/pub/permanent/MCST/Aqua_IB_OOB_Merged_RSR
# 
# LAMBDA   RSR
# 
 7900.00 0.0007910000000000
 7950.00 0.0011300000000000
 8000.00 0.0027400000000000
 8100.00 0.0109000000000000
 8136.90 0.0100000000000000
 8164.10 0.0157400000000000
 8193.90 0.0264700000000000
 8224.20 0.0435800000000000
 8253.90 0.0726600000000000
 8283.90 0.1243300000000000
 8313.90 0.2120900000000000
 8344.20 0.3401100000000000
 8373.90 0.4970400000000000
 8404.00 0.6647600000000000
 8434.10 0.8143200000000000
 8464.00 0.9220900000000000
 8494.00 0.9717700000000000
 8524.00 0.9597700000000000
 8554.10 0.9340200000000000
 8583.80 0.9235300000000000
 8613.90 0.9570300000000000
 8643.90 1.0000000000000000
 8674.20 0.9644100000000000
 8703.90 0.7921100000000000
 8734.00 0.5548700000000000
 8764.10 0.3448100000000000
 8793.90 0.1968700000000000
 8823.90 0.1052600000000000
 8853.80 0.0516600000000000
 8884.10 0.0232800000000000
 8914.00 0.0106200000000000
 8917.40 0.0100000000000000
 9000.00 0.0049500000000000
 9100.00 0.0017300000000000
 9200.00 0.0006200000000000
