# MODIS AQUA relative spectral response function
# (see http://mcst.gsfc.nasa.gov/calibration/parameters)
# converted from ftp://mcst.ssaihq.com/pub/permanent/MCST/Aqua_IB_OOB_Merged_RSR
# 
# LAMBDA   RSR
# 
 3850.00 0.0009220000000000
 3900.00 0.0020900000000000
 3950.00 0.0139000000000000
 3970.40 0.0100000000000000
 3974.50 0.0141300000000000
 3979.60 0.0205900000000000
 3984.50 0.0292400000000000
 3989.70 0.0409300000000000
 3994.60 0.0583200000000000
 3999.50 0.0889600000000000
 4004.50 0.1396300000000000
 4009.50 0.2274300000000000
 4014.50 0.3597400000000000
 4019.60 0.5288600000000000
 4024.60 0.7141000000000000
 4029.70 0.8577700000000000
 4034.50 0.9324900000000000
 4039.60 0.9565100000000000
 4044.50 0.9615400000000000
 4049.60 0.9632600000000000
 4054.50 0.9736900000000001
 4059.70 0.9803900000000000
 4064.60 0.9896500000000000
 4069.70 1.0000000000000000
 4074.60 0.9953500000000000
 4079.70 0.9912700000000000
 4084.60 0.9841700000000000
 4089.60 0.9725600000000000
 4094.70 0.9057400000000000
 4099.50 0.7520300000000000
 4104.50 0.5228200000000000
 4109.50 0.3028800000000000
 4114.50 0.1738400000000000
 4119.70 0.1044400000000000
 4124.60 0.0683200000000000
 4129.50 0.0458400000000000
 4134.60 0.0312800000000000
 4139.50 0.0210000000000000
 4144.60 0.0137300000000000
 4148.30 0.0100000000000000
 4150.00 0.0206000000000000
 4200.00 0.0008560000000000
