# HIMAWARI9 relative spectral response function for band 14
# (see http://www.data.jma.go.jp/mscweb/en/himawari89/space_segment/spsg_ahi.html#band)
# converted from 
# http://www.data.jma.go.jp/mscweb/en/himawari89/space_segment/srf_201309/AHI-08_SpectralResponsivity.zip
# http://www.data.jma.go.jp/mscweb/en/himawari89/space_segment/srf_201310/AHI-09_SpectralResponsivity.zip
# 
# LAMBDA   RSR
# 
10419.92 0.0009978543166000
10421.01 0.0010076960120000
10422.09 0.0011685724580000
10423.18 0.0012325516310000
10424.27 0.0012438984470000
10425.35 0.0012560807240000
10426.44 0.0012679173280000
10427.53 0.0012790994260000
10428.62 0.0012894917210000
10429.70 0.0012989408930000
10430.79 0.0013074120580000
10431.88 0.0013150533470000
10432.97 0.0013216379320000
10434.06 0.0013272932710000
10435.15 0.0013323242270000
10436.23 0.0013369619910000
10437.32 0.0013413400820000
10438.41 0.0013459384730000
10439.50 0.0013509390730000
10440.59 0.0013567096120000
10441.68 0.0013635332070000
10442.77 0.0013717041460000
10443.86 0.0013813591120000
10444.96 0.0013927250430000
10446.05 0.0014057162400000
10447.14 0.0014204448720000
10448.23 0.0014367861950000
10449.32 0.0014546928150000
10450.41 0.0014738983850000
10451.51 0.0014942174570000
10452.60 0.0015153450970000
10453.69 0.0015369807630000
10454.78 0.0015588394900000
10455.88 0.0015806249550000
10456.97 0.0016021418740000
10458.06 0.0016231372880000
10459.16 0.0016435746460000
10460.25 0.0016632237660000
10461.35 0.0016821692360000
10462.44 0.0017003229170000
10463.53 0.0017179312950000
10464.63 0.0017351415500000
10465.72 0.0017520400020000
10466.82 0.0017687533160000
10467.92 0.0017856706390000
10469.01 0.0018028749610000
10470.11 0.0018207401010000
10471.20 0.0018391695920000
10472.30 0.0018583385550000
10473.40 0.0018784880460000
10474.49 0.0018994844300000
10475.59 0.0019213118370000
10476.69 0.0019438629730000
10477.79 0.0019670387690000
10478.89 0.0019908401360000
10479.98 0.0020148218140000
10481.08 0.0020390630150000
10482.18 0.0020633184610000
10483.28 0.0020875029350000
10484.38 0.0021113464060000
10485.48 0.0021349634530000
10486.58 0.0021582953370000
10487.68 0.0021814124560000
10488.78 0.0022044474530000
10489.88 0.0022274803490000
10490.98 0.0022507535440000
10492.08 0.0022746941490000
10493.18 0.0022993300100000
10494.28 0.0023248865100000
10495.38 0.0023518551010000
10496.48 0.0023802476110000
10497.59 0.0024103690930000
10498.69 0.0024422429180000
10499.79 0.0024759820850000
10500.89 0.0025118003660000
10502.00 0.0025494449390000
10503.10 0.0025887606200000
10504.20 0.0026298174380000
10505.31 0.0026720234150000
10506.41 0.0027153061410000
10507.51 0.0027594628990000
10508.62 0.0028040088430000
10509.72 0.0028488978100000
10510.83 0.0028938239950000
10511.93 0.0029383561140000
10513.04 0.0029826188390000
10514.14 0.0030265661030000
10515.25 0.0030700953380000
10516.35 0.0031132474880000
10517.46 0.0031561030660000
10518.57 0.0031988469880000
10519.67 0.0032416104550000
10520.78 0.0032848893360000
10521.89 0.0033290081350000
10522.99 0.0033742065860000
10524.10 0.0034207468570000
10525.21 0.0034686655000000
10526.32 0.0035184748690000
10527.42 0.0035702006160000
10528.53 0.0036241166020000
10529.64 0.0036800342140000
10530.75 0.0037380756680000
10531.86 0.0037982109450000
10532.97 0.0038602188280000
10534.08 0.0039239498430000
10535.19 0.0039892171870000
10536.30 0.0040557027690000
10537.41 0.0041231288400000
10538.52 0.0041912667850000
10539.63 0.0042598556740000
10540.74 0.0043286275980000
10541.85 0.0043974638500000
10542.96 0.0044660879530000
10544.07 0.0045345913310000
10545.19 0.0046029404270000
10546.30 0.0046709566480000
10547.41 0.0047389651950000
10548.52 0.0048068842510000
10549.64 0.0048748690680000
10550.75 0.0049432326640000
10551.86 0.0050119082620000
10552.98 0.0050812988650000
10554.09 0.0051516037580000
10555.20 0.0052228792110000
10556.32 0.0052955401290000
10557.43 0.0053696379970000
10558.55 0.0054452674440000
10559.66 0.0055229068080000
10560.78 0.0056025999740000
10561.89 0.0056838322490000
10563.01 0.0057672234660000
10564.12 0.0058525197080000
10565.24 0.0059397628180000
10566.36 0.0060290808130000
10567.47 0.0061203742700000
10568.59 0.0062136436370000
10569.71 0.0063090291760000
10570.82 0.0064064240290000
10571.94 0.0065057105380000
10573.06 0.0066069527140000
10574.18 0.0067101755540000
10575.30 0.0068154859320000
10576.41 0.0069225721620000
10577.53 0.0070314938670000
10578.65 0.0071423501280000
10579.77 0.0072548049360000
10580.89 0.0073687105050000
10582.01 0.0074839839420000
10583.13 0.0076007333230000
10584.25 0.0077186426550000
10585.37 0.0078375620340000
10586.49 0.0079576031990000
10587.61 0.0080784974630000
10588.73 0.0082000541780000
10589.85 0.0083224437130000
10590.98 0.0084455821050000
10592.10 0.0085694203220000
10593.22 0.0086941544490000
10594.34 0.0088195259350000
10595.47 0.0089459769060000
10596.59 0.0090734502810000
10597.71 0.0092020940090000
10598.83 0.0093319129060000
10599.96 0.0094631448600000
10601.08 0.0095962111720000
10602.21 0.0097311595190000
10603.33 0.0098683233590000
10604.45 0.0100079630100000
10605.58 0.0101504173900000
10606.70 0.0102956528700000
10607.83 0.0104434679600000
10608.95 0.0106039529600000
10610.08 0.0107777640700000
10611.21 0.0109578792600000
10612.33 0.0111425930300000
10613.46 0.0113321053000000
10614.58 0.0115262974600000
10615.71 0.0117247188900000
10616.84 0.0119274242800000
10617.97 0.0121332683100000
10619.09 0.0123423369100000
10620.22 0.0125551754100000
10621.35 0.0127707688100000
10622.48 0.0129892514200000
10623.61 0.0132101188000000
10624.73 0.0134331749800000
10625.86 0.0136582216900000
10626.99 0.0138855051600000
10628.12 0.0141149153100000
10629.25 0.0143461400500000
10630.38 0.0145797559300000
10631.51 0.0148155746400000
10632.64 0.0150540108700000
10633.77 0.0152943296400000
10634.90 0.0155369451300000
10636.03 0.0157820846000000
10637.17 0.0160298199300000
10638.30 0.0162802949900000
10639.43 0.0165335367200000
10640.56 0.0167897719200000
10641.69 0.0170491268900000
10642.83 0.0173122749400000
10643.96 0.0175785852900000
10645.09 0.0178486982000000
10646.23 0.0181222893600000
10647.36 0.0183998851000000
10648.49 0.0186821405700000
10649.63 0.0189679951500000
10650.76 0.0192577406600000
10651.90 0.0195517018200000
10653.03 0.0198501930900000
10654.17 0.0201533430100000
10655.30 0.0204618539700000
10656.44 0.0207749036400000
10657.57 0.0210936458300000
10658.71 0.0214212498500000
10659.84 0.0217572537000000
10660.98 0.0220987853700000
10662.12 0.0224457955300000
10663.25 0.0227995085900000
10664.39 0.0231600666600000
10665.53 0.0235277477500000
10666.67 0.0239013187700000
10667.80 0.0242822289000000
10668.94 0.0246709479000000
10670.08 0.0250676453900000
10671.22 0.0254732658100000
10672.36 0.0258883291600000
10673.50 0.0263122976500000
10674.64 0.0267470973100000
10675.78 0.0271924492400000
10676.92 0.0276481874000000
10678.06 0.0281159764500000
10679.20 0.0285973599300000
10680.34 0.0290893034600000
10681.48 0.0295950555700000
10682.62 0.0301127708100000
10683.76 0.0306457131200000
10684.90 0.0311931185600000
10686.04 0.0317513669700000
10687.19 0.0322964362400000
10688.33 0.0328491164200000
10689.47 0.0334157960300000
10690.61 0.0339966907500000
10691.76 0.0345906345300000
10692.90 0.0352007344500000
10694.04 0.0358225995700000
10695.19 0.0364583695700000
10696.33 0.0371089435200000
10697.48 0.0377742163700000
10698.62 0.0384550293500000
10699.76 0.0391515896800000
10700.91 0.0398652658300000
10702.05 0.0405945635000000
10703.20 0.0413457563500000
10704.35 0.0421134499800000
10705.49 0.0428760297300000
10706.64 0.0436387874100000
10707.78 0.0444267596000000
10708.93 0.0452356897100000
10710.08 0.0460713493500000
10711.23 0.0469344254000000
10712.37 0.0478280398900000
10713.52 0.0487540953300000
10714.67 0.0497155213000000
10715.82 0.0507134896200000
10716.96 0.0517534958100000
10718.11 0.0528211374800000
10719.26 0.0538187565000000
10720.41 0.0548157595500000
10721.56 0.0558459025300000
10722.71 0.0569128567600000
10723.86 0.0580177316500000
10725.01 0.0591647280200000
10726.16 0.0603576491600000
10727.31 0.0616016666000000
10728.46 0.0628924322000000
10729.61 0.0641670160300000
10730.77 0.0654319571500000
10731.92 0.0667401197400000
10733.07 0.0681053299900000
10734.22 0.0695214865800000
10735.37 0.0709930519100000
10736.53 0.0725320141900000
10737.68 0.0740867114100000
10738.83 0.0755358031300000
10739.98 0.0769937792800000
10741.14 0.0784941794000000
10742.29 0.0800463823000000
10743.45 0.0816423629000000
10744.60 0.0832931262900000
10745.76 0.0849330958200000
10746.91 0.0864958272500000
10748.07 0.0880797329700000
10749.22 0.0897059283700000
10750.38 0.0913607238700000
10751.53 0.0930560026100000
10752.69 0.0947843970500000
10753.84 0.0964893147600000
10755.00 0.0982050025800000
10756.16 0.0999595314800000
10757.31 0.1017579068000000
10758.47 0.1036014664000000
10759.63 0.1054827431000000
10760.79 0.1073427626000000
10761.95 0.1092281647000000
10763.10 0.1111607368000000
10764.26 0.1131405618000000
10765.42 0.1151624913000000
10766.58 0.1171406175000000
10767.74 0.1190930091000000
10768.90 0.1210863504000000
10770.06 0.1231285444000000
10771.22 0.1252204746000000
10772.38 0.1272954273000000
10773.54 0.1293452714000000
10774.70 0.1314249298000000
10775.86 0.1335519001000000
10777.02 0.1357215462000000
10778.18 0.1379249136000000
10779.35 0.1401566820000000
10780.51 0.1424276091000000
10781.67 0.1447391647000000
10782.83 0.1470963069000000
10784.00 0.1495181826000000
10785.16 0.1520070051000000
10786.32 0.1545366552000000
10787.49 0.1571019979000000
10788.65 0.1596979127000000
10789.81 0.1623267240000000
10790.98 0.1649930914000000
10792.14 0.1677013312000000
10793.31 0.1703974442000000
10794.47 0.1730858048000000
10795.64 0.1757906443000000
10796.80 0.1785323399000000
10797.97 0.1812313793000000
10799.14 0.1839229322000000
10800.30 0.1866283513000000
10801.47 0.1893545377000000
10802.64 0.1920769729000000
10803.80 0.1948024628000000
10804.97 0.1975556117000000
10806.14 0.2003400131000000
10807.31 0.2031666435000000
10808.47 0.2060432181000000
10809.64 0.2089572980000000
10810.81 0.2119286427000000
10811.98 0.2149918373000000
10813.15 0.2180979996000000
10814.32 0.2212518626000000
10815.49 0.2244916098000000
10816.66 0.2277947586000000
10817.83 0.2311511380000000
10819.00 0.2345743165000000
10820.17 0.2380528591000000
10821.34 0.2415757560000000
10822.51 0.2451296058000000
10823.68 0.2487184233000000
10824.85 0.2523360451000000
10826.03 0.2559688312000000
10827.20 0.2596190166000000
10828.37 0.2633120208000000
10829.54 0.2670114008000000
10830.72 0.2707444578000000
10831.89 0.2745193860000000
10833.06 0.2783288413000000
10834.24 0.2821787188000000
10835.41 0.2860900673000000
10836.58 0.2900649366000000
10837.76 0.2940924804000000
10838.93 0.2981960289000000
10840.11 0.3023662653000000
10841.28 0.3066342226000000
10842.46 0.3109887279000000
10843.63 0.3154098463000000
10844.81 0.3199372798000000
10845.99 0.3245286947000000
10847.16 0.3292011339000000
10848.34 0.3339435691000000
10849.52 0.3387492645000000
10850.69 0.3436298696000000
10851.87 0.3485541236000000
10853.05 0.3535232612000000
10854.23 0.3585318893000000
10855.41 0.3635863805000000
10856.58 0.3686823756000000
10857.76 0.3738118490000000
10858.94 0.3789787519000000
10860.12 0.3841805198000000
10861.30 0.3894274545000000
10862.48 0.3947254199000000
10863.66 0.4000597173000000
10864.84 0.4054499588000000
10866.02 0.4108875026000000
10867.20 0.4163835861000000
10868.38 0.4219567373000000
10869.57 0.4276016615000000
10870.75 0.4333240610000000
10871.93 0.4391293614000000
10873.11 0.4450023240000000
10874.29 0.4509650544000000
10875.48 0.4570044616000000
10876.66 0.4631188041000000
10877.84 0.4692946493000000
10879.03 0.4755206206000000
10880.21 0.4818276972000000
10881.39 0.4881856259000000
10882.58 0.4945679321000000
10883.76 0.5010118893000000
10884.95 0.5074975584000000
10886.13 0.5140187673000000
10887.32 0.5205719567000000
10888.50 0.5271522776000001
10889.69 0.5337584341000000
10890.87 0.5403922868000000
10892.06 0.5470564276000000
10893.25 0.5537110591000000
10894.43 0.5603987615000000
10895.62 0.5671274339000000
10896.81 0.5738719083000000
10897.99 0.5806278559000000
10899.18 0.5874459178000000
10900.37 0.5942967043000000
10901.56 0.6011846341000000
10902.75 0.6081311487000000
10903.94 0.6150982838000000
10905.13 0.6220795552000000
10906.31 0.6291075020000000
10907.50 0.6361943648000000
10908.69 0.6432882573000001
10909.88 0.6504245671000000
10911.07 0.6575868112000000
10912.27 0.6647179495000000
10913.46 0.6718316572000000
10914.65 0.6789511659000000
10915.84 0.6860151159000000
10917.03 0.6930360134000000
10918.22 0.7000410537000000
10919.41 0.7069705898000000
10920.61 0.7138341440000000
10921.80 0.7206454225000000
10922.99 0.7273299828999999
10924.19 0.7339564507000000
10925.38 0.7405207591000000
10926.57 0.7469668692000000
10927.77 0.7533790386000000
10928.96 0.7597848330000000
10930.16 0.7660937337000000
10931.35 0.7723448923000000
10932.55 0.7785936783000000
10933.74 0.7847996723000000
10934.94 0.7909596752000000
10936.13 0.7971476349000000
10937.33 0.8032504307000000
10938.53 0.8093695144000000
10939.72 0.8155420857000000
10940.92 0.8215946545000000
10942.12 0.8277059348000000
10943.31 0.8338109936000000
10944.51 0.8398375962000000
10945.71 0.8458728568000000
10946.91 0.8518410193000000
10948.11 0.8577341848000000
10949.30 0.8635607349000000
10950.50 0.8692809423000000
10951.70 0.8749216962000000
10952.90 0.8804213807000000
10954.10 0.8857192647000000
10955.30 0.8908604974000000
10956.50 0.8957877748999999
10957.70 0.9005685223000000
10958.90 0.9051311265999999
10960.11 0.9094992321000001
10961.31 0.9137486720000000
10962.51 0.9177312996000000
10963.71 0.9216305997000001
10964.91 0.9253582088000000
10966.11 0.9289223920000000
10967.32 0.9324180256000000
10968.52 0.9358019411000000
10969.72 0.9390911451000000
10970.93 0.9422984406000000
10972.13 0.9454343536000001
10973.33 0.9485084913000000
10974.54 0.9514479710000000
10975.74 0.9543527682000000
10976.95 0.9572441944000000
10978.15 0.9599844941000000
10979.36 0.9625812796000000
10980.56 0.9651098507000000
10981.77 0.9676287016000000
10982.98 0.9701091208000000
10984.18 0.9725441181000000
10985.39 0.9748966360000000
10986.60 0.9771691955000000
10987.80 0.9793027262000000
10989.01 0.9812945160000000
10990.22 0.9831626293000000
10991.43 0.9848215063000000
10992.63 0.9863303594000000
10993.84 0.9876460283000000
10995.05 0.9887802852000001
10996.26 0.9897751247000000
10997.47 0.9905924435000000
10998.68 0.9912984191000001
10999.89 0.9919017798999999
11001.10 0.9924187058000000
11002.31 0.9928767744000000
11003.52 0.9932876872000000
11004.73 0.9936863996999999
11005.94 0.9940948756000000
11007.15 0.9945253692000000
11008.37 0.9949885651000000
11009.58 0.9954900990000000
11010.79 0.9960132951000000
11012.00 0.9965424414000000
11013.22 0.9970820482000000
11014.43 0.9976256961000000
11015.64 0.9981564201999999
11016.86 0.9986492117000000
11018.07 0.9990998283000000
11019.28 0.9994688778000000
11020.50 0.9997568212000000
11021.71 0.9999451008000000
11022.93 0.9999997601000000
11024.14 0.9999609888000000
11025.36 0.9997832198000000
11026.57 0.9994707000000000
11027.79 0.9990603122000000
11029.01 0.9985280617000000
11030.22 0.9979293402000000
11031.44 0.9972713784000000
11032.66 0.9965802337000000
11033.87 0.9958792206000000
11035.09 0.9951942337000000
11036.31 0.9945403447000000
11037.53 0.9939451700000000
11038.75 0.9934351089000000
11039.96 0.9929936133000000
11041.18 0.9926676428000000
11042.40 0.9924109804000000
11043.62 0.9922382025000001
11044.84 0.9921355888000000
11046.06 0.9920716798000000
11047.28 0.9920392152000000
11048.50 0.9920131873000000
11049.72 0.9919645843000000
11050.94 0.9918652538000000
11052.17 0.9917014672000000
11053.39 0.9914375280000000
11054.61 0.9910626690000000
11055.83 0.9906026840000000
11057.05 0.9900228314000000
11058.28 0.9893679088000000
11059.50 0.9886348944000000
11060.72 0.9878489119000000
11061.95 0.9870460524000000
11063.17 0.9862305371000000
11064.39 0.9854489776000001
11065.62 0.9847277697000000
11066.84 0.9841004487000000
11068.07 0.9835527181000000
11069.29 0.9831460827000000
11070.52 0.9828450256000000
11071.74 0.9826586643000000
11072.97 0.9825972356000000
11074.20 0.9826113606000000
11075.42 0.9827037414000001
11076.65 0.9828404167000000
11077.88 0.9829971218000000
11079.10 0.9831218827000000
11080.33 0.9832032047000000
11081.56 0.9832165255999999
11082.79 0.9831441223000000
11084.02 0.9829821026000000
11085.25 0.9826891793000000
11086.47 0.9823145702000000
11087.70 0.9818281131000000
11088.93 0.9812586565000000
11090.16 0.9806354052000000
11091.39 0.9799866892000000
11092.62 0.9793384087000000
11093.85 0.9787312824000000
11095.08 0.9782065265000000
11096.32 0.9777565730000000
11097.55 0.9774395083000000
11098.78 0.9772394047000000
11100.01 0.9771795472000000
11101.24 0.9772553090000000
11102.48 0.9774308709000000
11103.71 0.9777196147000000
11104.94 0.9780596651000000
11106.18 0.9784328319000000
11107.41 0.9788199309000000
11108.64 0.9791856166000000
11109.88 0.9794806528000000
11111.11 0.9797123786000000
11112.35 0.9798527768000000
11113.58 0.9798480086000000
11114.82 0.9797532919000000
11116.05 0.9795141315000000
11117.29 0.9791871847000000
11118.52 0.9787934994000000
11119.76 0.9783371372000000
11121.00 0.9778554457999999
11122.23 0.9773798642000000
11123.47 0.9769586886000000
11124.71 0.9765869193000000
11125.95 0.9763362433000000
11127.18 0.9761821049000000
11128.42 0.9761311625000000
11129.66 0.9761622689000000
11130.90 0.9762849372000000
11132.14 0.9765609370000000
11133.38 0.9769125000000000
11134.62 0.9773459579000000
11135.86 0.9778440717000000
11137.10 0.9783643120000000
11138.34 0.9788794881000000
11139.58 0.9793624058000000
11140.82 0.9797960776000000
11142.06 0.9801475670000001
11143.30 0.9804198343000000
11144.54 0.9805857769000000
11145.79 0.9806659039000000
11147.03 0.9806393960999999
11148.27 0.9805257295000001
11149.51 0.9803639899000000
11150.76 0.9801327723000000
11152.00 0.9798781481000000
11153.25 0.9796440788000000
11154.49 0.9794323433000000
11155.73 0.9792426901000000
11156.98 0.9791472227000000
11158.22 0.9791250573000000
11159.47 0.9791749167000000
11160.71 0.9793370488000001
11161.96 0.9795762990000000
11163.21 0.9799233330000000
11164.45 0.9803263806000000
11165.70 0.9807934291000000
11166.95 0.9812903572000000
11168.19 0.9817836769000000
11169.44 0.9822531682000000
11170.69 0.9826608136000000
11171.94 0.9829692764000000
11173.18 0.9831491063000000
11174.43 0.9832314040000000
11175.68 0.9831684499000000
11176.93 0.9829439486000000
11178.18 0.9826010151000000
11179.43 0.9821257912000000
11180.68 0.9815919259000000
11181.93 0.9809719778000000
11183.18 0.9803221094000000
11184.43 0.9796686525000000
11185.68 0.9790564102000000
11186.93 0.9785121510000000
11188.19 0.9780874807000000
11189.44 0.9778047709000000
11190.69 0.9776824259000000
11191.94 0.9777212236000000
11193.19 0.9778879561000000
11194.45 0.9782151461000000
11195.70 0.9786668485000000
11196.95 0.9792217043000000
11198.21 0.9798519957000000
11199.46 0.9805075810000000
11200.72 0.9811401168000000
11201.97 0.9817052347000000
11203.23 0.9821717747000001
11204.48 0.9824757727000000
11205.74 0.9826493351000000
11206.99 0.9825959322000000
11208.25 0.9823920150000000
11209.51 0.9820247177000000
11210.76 0.9814797105000000
11212.02 0.9808183453000000
11213.28 0.9800740158000000
11214.53 0.9792780482000000
11215.79 0.9784765689000000
11217.05 0.9777441397000000
11218.31 0.9770909564000000
11219.57 0.9765793788000000
11220.83 0.9762014839000001
11222.09 0.9760058921000000
11223.34 0.9760062663000000
11224.60 0.9761609613000000
11225.86 0.9765148578000000
11227.12 0.9769970900000000
11228.39 0.9775944977000000
11229.65 0.9782595079000000
11230.91 0.9789599302999999
11232.17 0.9796529550000000
11233.43 0.9803041879000000
11234.69 0.9808757637000000
11235.96 0.9813275303000000
11237.22 0.9816678625000000
11238.48 0.9818553378000000
11239.74 0.9819021263000000
11241.01 0.9818415753000000
11242.27 0.9816954135000000
11243.53 0.9814943182000000
11244.80 0.9812632569000000
11246.06 0.9810419609000000
11247.33 0.9808443222000000
11248.59 0.9807178938000000
11249.86 0.9806788847000000
11251.13 0.9807520125000000
11252.39 0.9809293528000000
11253.66 0.9812428182000000
11254.92 0.9816683506000000
11256.19 0.9821777998000000
11257.46 0.9827724284000000
11258.73 0.9833973798000000
11259.99 0.9840472199000000
11261.26 0.9846449749000000
11262.53 0.9851588022000000
11263.80 0.9855595221000000
11265.07 0.9858542990000000
11266.34 0.9860145435000000
11267.61 0.9860580794000000
11268.88 0.9860004110000000
11270.15 0.9858387587000000
11271.42 0.9855834027000000
11272.69 0.9852139143000000
11273.96 0.9847882433000000
11275.23 0.9843315609000000
11276.50 0.9838910780000000
11277.77 0.9834953768000000
11279.04 0.9832102673000001
11280.32 0.9830203425000000
11281.59 0.9829649995000000
11282.86 0.9830248595000000
11284.13 0.9831983466000001
11285.41 0.9835489758000000
11286.68 0.9839503069000000
11287.96 0.9844279316000000
11289.23 0.9849702263000000
11290.50 0.9855458021000000
11291.78 0.9861082734000000
11293.05 0.9866445665000000
11294.33 0.9871031407000000
11295.61 0.9874718901000000
11296.88 0.9877350317000000
11298.16 0.9878499279000000
11299.44 0.9878485052000000
11300.71 0.9876189970000000
11301.99 0.9871914516000000
11303.27 0.9866298070000000
11304.54 0.9859574480000000
11305.82 0.9852287078999999
11307.10 0.9844490830000000
11308.38 0.9836446961999999
11309.66 0.9828515841000000
11310.94 0.9821037363000000
11312.22 0.9813975541000000
11313.50 0.9807875630000000
11314.78 0.9802690539000000
11316.06 0.9798645685000000
11317.34 0.9795501812000000
11318.62 0.9793161464000000
11319.90 0.9791555980000000
11321.18 0.9790113788000000
11322.46 0.9788873997000000
11323.75 0.9787638815000000
11325.03 0.9786223898999999
11326.31 0.9784295152000000
11327.59 0.9781791873000000
11328.88 0.9778413822000001
11330.16 0.9774210088000000
11331.44 0.9768821122000000
11332.73 0.9761895133000000
11334.01 0.9754063279000000
11335.30 0.9744968754000000
11336.58 0.9735288700000000
11337.87 0.9724952848000000
11339.15 0.9714187075000000
11340.44 0.9703431173000000
11341.73 0.9692970542000000
11343.01 0.9683277427000000
11344.30 0.9674292302000000
11345.59 0.9666262705999999
11346.87 0.9659503809000000
11348.16 0.9653872626000000
11349.45 0.9649207024000001
11350.74 0.9645782122000000
11352.03 0.9642950492000000
11353.32 0.9640486655000000
11354.60 0.9638267944000000
11355.89 0.9635976087000000
11357.18 0.9633235782000000
11358.47 0.9629965195000000
11359.76 0.9625882327000000
11361.05 0.9620745437000000
11362.35 0.9614732260000000
11363.64 0.9607538886000000
11364.93 0.9599485563000000
11366.22 0.9590610276000000
11367.51 0.9581166456000000
11368.80 0.9571369232000000
11370.10 0.9561385464000000
11371.39 0.9551748060000000
11372.68 0.9542635451000000
11373.98 0.9534121897000000
11375.27 0.9526305455000000
11376.56 0.9519576946000000
11377.86 0.9513643434000000
11379.15 0.9508953699000000
11380.45 0.9504602706000000
11381.74 0.9501170222000000
11383.04 0.9498494216000000
11384.34 0.9496272339000000
11385.63 0.9494314819000000
11386.93 0.9492189823000000
11388.22 0.9489484813000000
11389.52 0.9485980907000000
11390.82 0.9480933134000000
11392.12 0.9473315711000000
11393.41 0.9464481288000000
11394.71 0.9453824998000000
11396.01 0.9441745711000000
11397.31 0.9428200444000000
11398.61 0.9413406071000000
11399.91 0.9397840104000000
11401.21 0.9381535331000000
11402.51 0.9364984774000000
11403.81 0.9348053056000000
11405.11 0.9330837733000000
11406.41 0.9313467705000000
11407.71 0.9296198954000000
11409.01 0.9279233078000000
11410.31 0.9263317309000000
11411.62 0.9248345331000000
11412.92 0.9234576110000000
11414.22 0.9221727182000000
11415.53 0.9209585846000000
11416.83 0.9198106955000001
11418.13 0.9186891997000000
11419.44 0.9175723314000001
11420.74 0.9164306414000000
11422.04 0.9152580918000000
11423.35 0.9139935664000000
11424.65 0.9126525359000000
11425.96 0.9111774485000000
11427.27 0.9095993183000000
11428.57 0.9078925327000000
11429.88 0.9060491150000000
11431.18 0.9041024294000000
11432.49 0.9020033121000000
11433.80 0.8998411029000000
11435.11 0.8975954925000000
11436.41 0.8953927929000000
11437.72 0.8929643248000000
11439.03 0.8894223183000000
11440.34 0.8852640013000000
11441.65 0.8814741770000000
11442.96 0.8783231668000000
11444.27 0.8751681200000000
11445.58 0.8721565484000000
11446.89 0.8695285156000000
11448.20 0.8668994057000000
11449.51 0.8642095090000000
11450.82 0.8615126407000000
11452.13 0.8587834699000000
11453.44 0.8560012152000001
11454.75 0.8531289480000001
11456.07 0.8500024715000000
11457.38 0.8468026992000000
11458.69 0.8434517451000000
11460.00 0.8397502118000000
11461.32 0.8359289637000000
11462.63 0.8317617375000000
11463.95 0.8273003144000000
11465.26 0.8226333132000000
11466.57 0.8177527405000000
11467.89 0.8128166355999999
11469.21 0.8078775454000000
11470.52 0.8029243032000000
11471.84 0.7980431236000000
11473.15 0.7931666885000000
11474.47 0.7883717855000000
11475.79 0.7835719315000000
11477.10 0.7787845433000000
11478.42 0.7740044986000000
11479.74 0.7692232208000001
11481.06 0.7644286836999999
11482.37 0.7595991772000000
11483.69 0.7547159433000000
11485.01 0.7497659350000000
11486.33 0.7447441784000000
11487.65 0.7396064752000000
11488.97 0.7343554298000000
11490.29 0.7289793449000000
11491.61 0.7234457417000000
11492.93 0.7177804927000000
11494.25 0.7119626623000000
11495.57 0.7060527907000000
11496.90 0.7000263858000000
11498.22 0.6939165458000000
11499.54 0.6876747655000000
11500.86 0.6813515962000000
11502.19 0.6749842252000000
11503.51 0.6685958018000000
11504.83 0.6621893145000000
11506.16 0.6558247934000000
11507.48 0.6495069950000000
11508.80 0.6432890724000000
11510.13 0.6371212166000000
11511.45 0.6310291896000000
11512.78 0.6250222801999999
11514.10 0.6190725777000000
11515.43 0.6132100934000000
11516.76 0.6073623870000000
11518.08 0.6015357200000000
11519.41 0.5956646477000000
11520.74 0.5897818017999999
11522.06 0.5838331449000000
11523.39 0.5778420623000000
11524.72 0.5717994421000000
11526.05 0.5656464213000000
11527.38 0.5594191216000000
11528.71 0.5530865895000000
11530.04 0.5466892190000000
11531.37 0.5402113632000000
11532.70 0.5336406545000000
11534.03 0.5269744180000000
11535.36 0.5202685975000000
11536.69 0.5135058731000000
11538.02 0.5067746670000000
11539.35 0.5000209581000000
11540.68 0.4933356780000000
11542.01 0.4867105279000000
11543.35 0.4801971934000000
11544.68 0.4737524668000000
11546.01 0.4674304062000000
11547.34 0.4612051692000000
11548.68 0.4550770872000000
11550.01 0.4490288454000000
11551.35 0.4430409799000000
11552.68 0.4371298825000000
11554.02 0.4312676701000000
11555.35 0.4254657704000000
11556.69 0.4196912822000000
11558.02 0.4139506017000000
11559.36 0.4082156200000000
11560.69 0.4024643944000000
11562.03 0.3967283336000000
11563.37 0.3909640561000000
11564.70 0.3852111394000000
11566.04 0.3794342502000000
11567.38 0.3736765599000000
11568.72 0.3678958611000000
11570.06 0.3621265145000000
11571.40 0.3563614265000000
11572.73 0.3506253467000000
11574.07 0.3449236745000000
11575.41 0.3392618860000000
11576.75 0.3336600144000000
11578.09 0.3281144058000000
11579.43 0.3226507042000000
11580.78 0.3172394754000000
11582.12 0.3118849631000000
11583.46 0.3066090948000000
11584.80 0.3014043698000000
11586.14 0.2962802751000000
11587.49 0.2912110613000000
11588.83 0.2862203157000000
11590.17 0.2812746843000000
11591.52 0.2764097145000000
11592.86 0.2715930144000000
11594.20 0.2668397334000000
11595.55 0.2621546609000000
11596.89 0.2575121299000000
11598.24 0.2529447634000000
11599.58 0.2484187770000000
11600.93 0.2439518939000000
11602.27 0.2395299107000000
11603.62 0.2351586243000000
11604.97 0.2308412920000000
11606.31 0.2265682590000000
11607.66 0.2223430462000000
11609.01 0.2181587626000000
11610.36 0.2140214393000000
11611.70 0.2099326327000000
11613.05 0.2058926473000000
11614.40 0.2019097329000000
11615.75 0.1979814507000000
11617.10 0.1941094946000000
11618.45 0.1902877656000000
11619.80 0.1865303917000000
11621.15 0.1828301143000000
11622.50 0.1791862077000000
11623.85 0.1756142947000000
11625.20 0.1720945348000000
11626.56 0.1686461528000000
11627.91 0.1652727746000000
11629.26 0.1619535807000000
11630.61 0.1587152289000000
11631.96 0.1555506612000000
11633.32 0.1524376160000000
11634.67 0.1493959698000000
11636.03 0.1464282580000000
11637.38 0.1435084332000000
11638.73 0.1406420281000000
11640.09 0.1378407475000000
11641.44 0.1350808538000000
11642.80 0.1323611034000000
11644.15 0.1296783221000000
11645.51 0.1270326687000000
11646.87 0.1244342975000000
11648.22 0.1218686106000000
11649.58 0.1193257705000000
11650.94 0.1168246403000000
11652.30 0.1143680012000000
11653.65 0.1119545113000000
11655.01 0.1095685603000000
11656.37 0.1072290931000000
11657.73 0.1049372051000000
11659.09 0.1027011524000000
11660.45 0.1005272815000000
11661.81 0.0984006537900000
11663.17 0.0963177805200000
11664.53 0.0942810529200000
11665.89 0.0923310820000000
11667.25 0.0904461707100000
11668.61 0.0885988165200000
11669.97 0.0867851552300000
11671.34 0.0850090767900000
11672.70 0.0832813626600000
11674.06 0.0816067474900000
11675.42 0.0799719593700000
11676.79 0.0783669075000000
11678.15 0.0767924429800000
11679.51 0.0752431109400000
11680.88 0.0736900923000000
11682.24 0.0721525609600000
11683.61 0.0706492504300000
11684.97 0.0691759439500000
11686.34 0.0677362506900000
11687.70 0.0663288013100000
11689.07 0.0649477557500000
11690.44 0.0635852545700000
11691.80 0.0622541429900000
11693.17 0.0609539750000000
11694.54 0.0596827352800000
11695.91 0.0584407928500000
11697.27 0.0572260356800000
11698.64 0.0560542548400000
11700.01 0.0549791118200000
11701.38 0.0539334422800000
11702.75 0.0529077179700000
11704.12 0.0519003415300000
11705.49 0.0509087701300000
11706.86 0.0499343634700000
11708.23 0.0489766556800000
11709.60 0.0480336024400000
11710.97 0.0471049058600000
11712.34 0.0461717083800000
11713.72 0.0452318216500000
11715.09 0.0443091684100000
11716.46 0.0434033853800000
11717.83 0.0425142704800000
11719.21 0.0416423100700000
11720.58 0.0407872730300000
11721.96 0.0399473614400000
11723.33 0.0391242312500000
11724.70 0.0383186186200000
11726.08 0.0375304757000000
11727.45 0.0367844797600000
11728.83 0.0360668675500000
11730.21 0.0353652719100000
11731.58 0.0346796829300000
11732.96 0.0340079516600000
11734.33 0.0333516657000000
11735.71 0.0327120887700000
11737.09 0.0320866453900000
11738.47 0.0314754675800000
11739.85 0.0308803088700000
11741.22 0.0302992916200000
11742.60 0.0297322378700000
11743.98 0.0291760770100000
11745.36 0.0286313580600000
11746.74 0.0280991215700000
11748.12 0.0275737521600000
11749.50 0.0270532660800000
11750.88 0.0265417212200000
11752.26 0.0260401797100000
11753.64 0.0255472804900000
11755.03 0.0250629567500000
11756.41 0.0245866896300000
11757.79 0.0241185293900000
11759.17 0.0236585622900000
11760.56 0.0232063673500000
11761.94 0.0227623446600000
11763.32 0.0223273803000000
11764.71 0.0219008468200000
11766.09 0.0214826478900000
11767.47 0.0210741002000000
11768.86 0.0206727259000000
11770.24 0.0202814917600000
11771.63 0.0198998833000000
11773.02 0.0195267922100000
11774.40 0.0191638123700000
11775.79 0.0188092660900000
11777.18 0.0184670878000000
11778.56 0.0181395604700000
11779.95 0.0178205475200000
11781.34 0.0175095085300000
11782.73 0.0172056309400000
11784.12 0.0169084140600000
11785.50 0.0166183864200000
11786.89 0.0163338970800000
11788.28 0.0160552616000000
11789.67 0.0157835969900000
11791.06 0.0155172354200000
11792.45 0.0152563175200000
11793.84 0.0150004005000000
11795.23 0.0147492486700000
11796.63 0.0145027844000000
11798.02 0.0142604725200000
11799.41 0.0140223013400000
11800.80 0.0137881073300000
11802.20 0.0135575523100000
11803.59 0.0133305653900000
11804.98 0.0131067428000000
11806.38 0.0128858983700000
11807.77 0.0126679064200000
11809.16 0.0124521730500000
11810.56 0.0122391506700000
11811.95 0.0120295881800000
11813.35 0.0118215502100000
11814.74 0.0116159404300000
11816.14 0.0114133208800000
11817.54 0.0112123216300000
11818.93 0.0110141692700000
11820.33 0.0108185965900000
11821.73 0.0106253069400000
11823.13 0.0104349343500000
11824.52 0.0102470674100000
11825.92 0.0100620295900000
11827.32 0.0098799509090000
11828.72 0.0097007963300000
11830.12 0.0095253571670000
11831.52 0.0093542794470000
11832.92 0.0091868252100000
11834.32 0.0090223624600000
11835.72 0.0088621770830000
11837.12 0.0087062069840000
11838.52 0.0085550203340000
11839.92 0.0084076902650000
11841.33 0.0082641357710000
11842.73 0.0081252591660000
11844.13 0.0079895186620000
11845.53 0.0078576875680000
11846.94 0.0077293256010000
11848.34 0.0076045224880000
11849.75 0.0074831598050000
11851.15 0.0073641185240000
11852.55 0.0072487209280000
11853.96 0.0071362789050000
11855.36 0.0070263930890000
11856.77 0.0069192885040000
11858.18 0.0068142540710000
11859.58 0.0067115138260000
11860.99 0.0066107137200000
11862.40 0.0065114648790000
11863.80 0.0064142969510000
11865.21 0.0063187867390000
11866.62 0.0062250062100000
11868.03 0.0061324988050000
11869.44 0.0060410861120000
11870.85 0.0059509838250000
11872.25 0.0058620559200000
11873.66 0.0057737588730000
11875.07 0.0056864027930000
11876.48 0.0055997172620000
11877.90 0.0055133462120000
11879.31 0.0054278056570000
11880.72 0.0053426541860000
11882.13 0.0052582290960000
11883.54 0.0051743031890000
11884.95 0.0050908308690000
11886.37 0.0050085917400000
11887.78 0.0049272442490000
11889.19 0.0048473238670000
11890.61 0.0047689445590000
11892.02 0.0046919685380000
11893.43 0.0046170444480000
11894.85 0.0045442096610000
11896.26 0.0044731440000000
11897.68 0.0044043432350000
11899.10 0.0043380988510000
11900.51 0.0042739024590000
11901.93 0.0042125373340000
11903.34 0.0041530381010000
11904.76 0.0040960173310000
11906.18 0.0040414398210000
11907.60 0.0039884197020000
11909.02 0.0039378278080000
11910.43 0.0038887009590000
11911.85 0.0038411540930000
11913.27 0.0037949856860000
11914.69 0.0037499522630000
11916.11 0.0037061056520000
11917.53 0.0036627701300000
11918.95 0.0036198947370000
11920.37 0.0035774778280000
11921.79 0.0035352307570000
11923.21 0.0034931357410000
11924.64 0.0034510644080000
11926.06 0.0034086556440000
11927.48 0.0033662074900000
11928.90 0.0033236326850000
11930.33 0.0032803183660000
11931.75 0.0032367709850000
11933.17 0.0031925541000000
11934.60 0.0031477895050000
11936.02 0.0031026696060000
11937.45 0.0030565505080000
11938.87 0.0030102676360000
11940.30 0.0029632848230000
11941.72 0.0029158062160000
11943.15 0.0028681064890000
11944.58 0.0028201248560000
11946.00 0.0027723228540000
11947.43 0.0027245163890000
11948.86 0.0026770586850000
11950.29 0.0026303992490000
11951.72 0.0025843931070000
11953.14 0.0025394627870000
11954.57 0.0024957950960000
11956.00 0.0024532763390000
11957.43 0.0024124515730000
11958.86 0.0023734098680000
11960.29 0.0023356555820000
11961.72 0.0022999854500000
11963.15 0.0022658516770000
11964.58 0.0022333472530000
11966.02 0.0022023305340000
11967.45 0.0021724829180000
11968.88 0.0021438552190000
11970.31 0.0021161586010000
11971.75 0.0020889704550000
11973.18 0.0020623775600000
11974.61 0.0020357849570000
11976.05 0.0020091233270000
11977.48 0.0019825102490000
11978.92 0.0019552989840000
11980.35 0.0019275836430000
11981.79 0.0018996495600000
11983.22 0.0018709823740000
11984.66 0.0018420356770000
11986.10 0.0018128620210000
11987.53 0.0017832840830000
11988.97 0.0017539382770000
11990.41 0.0017247458500000
11991.85 0.0016958595380000
11993.28 0.0016676575010000
11994.72 0.0016401435380000
11996.16 0.0016136220410000
11997.60 0.0015883168200000
11999.04 0.0015639903730000
12000.48 0.0015411304460000
12001.92 0.0015194221480000
12003.36 0.0014989278100000
12004.80 0.0014798879630000
12006.24 0.0014616284540000
12007.68 0.0014445095140000
12009.13 0.0014281783900000
12010.57 0.0014124914760000
12012.01 0.0013973974170000
12013.46 0.0013826307930000
12014.90 0.0013680678440000
12016.34 0.0013537519770000
12017.79 0.0013395545200000
12019.23 0.0013253461070000
12020.68 0.0013114061000000
12022.12 0.0012976262210000
12023.57 0.0012841909010000
12025.01 0.0012710714940000
12026.46 0.0012585373360000
12027.90 0.0012464984120000
12029.35 0.0012354752420000
12030.80 0.0012252912370000
12032.25 0.0012161359300000
12033.69 0.0012081873340000
12035.14 0.0012010478400000
12036.59 0.0011954085910000
12038.04 0.0011905896250000
12039.49 0.0011866203570000
12040.94 0.0011837519710000
12042.39 0.0011812052190000
12043.84 0.0011790517240000
12045.29 0.0011770972610000
12046.74 0.0011747020800000
12048.19 0.0011719563480000
12049.64 0.0011684392380000
12051.10 0.0011637238560000
12052.55 0.0011580126540000
12054.00 0.0011506950430000
12055.46 0.0011413991520000
12056.91 0.0011308817930000
12058.36 0.0011180217760000
12059.82 0.0011037478200000
12061.27 0.0010875531050000
12062.73 0.0010696179010000
12064.18 0.0010506490210000
12065.64 0.0010311255240000
12067.09 0.0009612831330000
