# HIMAWARI9 relative spectral response function for band 4
# (see http://www.data.jma.go.jp/mscweb/en/himawari89/space_segment/spsg_ahi.html#band)
# converted from 
# http://www.data.jma.go.jp/mscweb/en/himawari89/space_segment/srf_201309/AHI-08_SpectralResponsivity.zip
# http://www.data.jma.go.jp/mscweb/en/himawari89/space_segment/srf_201310/AHI-09_SpectralResponsivity.zip
# 
# LAMBDA   RSR
# 
  821.42 0.0009199242205000
  821.49 0.0010125137210000
  821.56 0.0011080445140000
  821.63 0.0012046691620000
  821.69 0.0013005384050000
  821.76 0.0013938011580000
  821.83 0.0014826045120000
  821.90 0.0015650937300000
  821.96 0.0016394122470000
  822.03 0.0017045620620000
  822.10 0.0017657951470000
  822.17 0.0018246031730000
  822.23 0.0018813038340000
  822.30 0.0019362151360000
  822.37 0.0019896554030000
  822.44 0.0020419432690000
  822.50 0.0020933976860000
  822.57 0.0021443379210000
  822.64 0.0021950835550000
  822.71 0.0022459544860000
  822.77 0.0022972709260000
  822.84 0.0023493534060000
  822.91 0.0024025227710000
  822.98 0.0024571001850000
  823.05 0.0025127047000000
  823.11 0.0025673877380000
  823.18 0.0026212978200000
  823.25 0.0026747568330000
  823.32 0.0027280869860000
  823.38 0.0027816108050000
  823.45 0.0028356511330000
  823.52 0.0028905311340000
  823.59 0.0029465742920000
  823.66 0.0030041044080000
  823.72 0.0030634456050000
  823.79 0.0031249223250000
  823.86 0.0031888593300000
  823.93 0.0032555817050000
  823.99 0.0033254148520000
  824.06 0.0033993300950000
  824.13 0.0034780455140000
  824.20 0.0035611200680000
  824.27 0.0036481069160000
  824.33 0.0037385587750000
  824.40 0.0038320279180000
  824.47 0.0039280661740000
  824.54 0.0040262249310000
  824.61 0.0041260551270000
  824.67 0.0042271072590000
  824.74 0.0043289313770000
  824.81 0.0044310770860000
  824.88 0.0045330935460000
  824.95 0.0046345294680000
  825.01 0.0047350111930000
  825.08 0.0048364560240000
  825.15 0.0049396873660000
  825.22 0.0050444742000000
  825.29 0.0051505852790000
  825.35 0.0052577891290000
  825.42 0.0053658540410000
  825.49 0.0054745480820000
  825.56 0.0055836390840000
  825.63 0.0056928946530000
  825.70 0.0058020821610000
  825.76 0.0059109687530000
  825.83 0.0060193213410000
  825.90 0.0061269066050000
  825.97 0.0062334909960000
  826.04 0.0063387569610000
  826.10 0.0064422763440000
  826.17 0.0065443405010000
  826.24 0.0066453248690000
  826.31 0.0067456052560000
  826.38 0.0068455578450000
  826.45 0.0069455591900000
  826.51 0.0070459862200000
  826.58 0.0071472162370000
  826.65 0.0072496269200000
  826.72 0.0073535963180000
  826.79 0.0074595028580000
  826.86 0.0075677253410000
  826.92 0.0076786429450000
  826.99 0.0077926352210000
  827.06 0.0079077846650000
  827.13 0.0080214226450000
  827.20 0.0081344273560000
  827.27 0.0082477081680000
  827.34 0.0083621753540000
  827.40 0.0084787400900000
  827.47 0.0085983144570000
  827.54 0.0087218114410000
  827.61 0.0088501449350000
  827.68 0.0089842297370000
  827.75 0.0091249815550000
  827.81 0.0092733170040000
  827.88 0.0094301536070000
  827.95 0.0095964097980000
  828.02 0.0097731497970000
  828.09 0.0099633708820000
  828.16 0.0101678888400000
  828.23 0.0103866049500000
  828.29 0.0106194203800000
  828.36 0.0108662362300000
  828.43 0.0111269534500000
  828.50 0.0114014729300000
  828.57 0.0116896954300000
  828.64 0.0119915216200000
  828.71 0.0123068520700000
  828.78 0.0126355872500000
  828.84 0.0129776275100000
  828.91 0.0133328731100000
  828.98 0.0137012242200000
  829.05 0.0140879078100000
  829.12 0.0145064279600000
  829.19 0.0149564175300000
  829.26 0.0154367378600000
  829.32 0.0159462491700000
  829.39 0.0164838105100000
  829.46 0.0170482798100000
  829.53 0.0176385138400000
  829.60 0.0182533682500000
  829.67 0.0188916975100000
  829.74 0.0195523549700000
  829.81 0.0202341928200000
  829.88 0.0209360621100000
  829.94 0.0216568127200000
  830.01 0.0223957376600000
  830.08 0.0231675863600000
  830.15 0.0239798469500000
  830.22 0.0248323210500000
  830.29 0.0257248100700000
  830.36 0.0266571151900000
  830.43 0.0276290374200000
  830.50 0.0286403775300000
  830.56 0.0296909361000000
  830.63 0.0307805135000000
  830.70 0.0319089098700000
  830.77 0.0330759251700000
  830.84 0.0342813591400000
  830.91 0.0355250113000000
  830.98 0.0368066809800000
  831.05 0.0381364659900000
  831.12 0.0395433589600000
  831.19 0.0410266118800000
  831.26 0.0425834380400000
  831.32 0.0442110479400000
  831.39 0.0459066492900000
  831.46 0.0476674469600000
  831.53 0.0494906430600000
  831.60 0.0513734368600000
  831.67 0.0533130248200000
  831.74 0.0553066006100000
  831.81 0.0573513550600000
  831.88 0.0594444761900000
  831.95 0.0615831492000000
  832.02 0.0637664639600000
  832.09 0.0660393652600000
  832.15 0.0684174749000000
  832.22 0.0708949140100000
  832.29 0.0734657978100000
  832.36 0.0761242356300000
  832.43 0.0788643308900000
  832.50 0.0816801810800000
  832.57 0.0845658777900000
  832.64 0.0875155067000000
  832.71 0.0905231475200000
  832.78 0.0935828740600000
  832.85 0.0966887541900000
  832.92 0.0998348498400000
  832.99 0.1030152170000000
  833.06 0.1062526989000000
  833.13 0.1095987049000000
  833.19 0.1130460295000000
  833.26 0.1165856815000000
  833.33 0.1202086609000000
  833.40 0.1239059587000000
  833.47 0.1276685567000000
  833.54 0.1314874277000000
  833.61 0.1353535355000000
  833.68 0.1392578350000000
  833.75 0.1431912716000000
  833.82 0.1471447822000000
  833.89 0.1511092941000000
  833.96 0.1550757259000000
  834.03 0.1590387365000000
  834.10 0.1630259417000000
  834.17 0.1670454400000000
  834.24 0.1710979918000000
  834.31 0.1751843579000000
  834.38 0.1793053000000000
  834.45 0.1834615805000000
  834.52 0.1876539627000000
  834.59 0.1918832104000000
  834.65 0.1961500883000000
  834.72 0.2004553620000000
  834.79 0.2047997976000000
  834.86 0.2091841622000000
  834.93 0.2136092234000000
  835.00 0.2180757993000000
  835.07 0.2226065236000000
  835.14 0.2272137303000000
  835.21 0.2318887135000000
  835.28 0.2366227585000000
  835.35 0.2414071420000000
  835.42 0.2462331318000000
  835.49 0.2510919870000000
  835.56 0.2559749580000000
  835.63 0.2608732862000000
  835.70 0.2657782043000000
  835.77 0.2706809364000000
  835.84 0.2755726976000000
  835.91 0.2804446941000000
  835.98 0.2852881236000000
  836.05 0.2901049346000000
  836.12 0.2949198623000000
  836.19 0.2997350053000000
  836.26 0.3045509969000000
  836.33 0.3093684707000000
  836.40 0.3141880612000000
  836.47 0.3190104034000000
  836.54 0.3238361330000000
  836.61 0.3286658864000000
  836.68 0.3335003005000000
  836.75 0.3383400129000000
  836.82 0.3431856618000000
  836.89 0.3480378861000000
  836.96 0.3528973253000000
  837.03 0.3577645536000000
  837.10 0.3626392902000000
  837.17 0.3675209751000000
  837.24 0.3724091004000000
  837.31 0.3773031581000000
  837.38 0.3822026393000000
  837.45 0.3871070349000000
  837.52 0.3920158350000000
  837.59 0.3969285295000000
  837.66 0.4018446075000000
  837.73 0.4067635578000000
  837.80 0.4116848686000000
  837.87 0.4166080275000000
  837.94 0.4215325217000000
  838.01 0.4264581509000000
  838.08 0.4313969116000000
  838.15 0.4363523541000000
  838.22 0.4413206131000000
  838.29 0.4462978193000000
  838.36 0.4512800994000000
  838.43 0.4562635763000000
  838.50 0.4612443690000000
  838.57 0.4662185925000000
  838.64 0.4711823581000000
  838.72 0.4761317730000000
  838.79 0.4810629405000000
  838.86 0.4859719600000000
  838.93 0.4908549271000000
  839.00 0.4957079333000000
  839.07 0.5005303852000000
  839.14 0.5053267362000000
  839.21 0.5100999491000000
  839.28 0.5148529838000000
  839.35 0.5195888028000000
  839.42 0.5243103719000000
  839.49 0.5290206598000000
  839.56 0.5337226381000000
  839.63 0.5384192817000000
  839.70 0.5431135681000000
  839.77 0.5478084780000000
  839.84 0.5525069952000000
  839.91 0.5572121063000000
  839.98 0.5619268010000000
  840.05 0.5666533737000000
  840.12 0.5713901894000000
  840.19 0.5761344490000000
  840.27 0.5808833642000000
  840.34 0.5856341438000000
  840.41 0.5903839938000000
  840.48 0.5951301174000000
  840.55 0.5998697150000000
  840.62 0.6045999842000001
  840.69 0.6093181196000000
  840.76 0.6140213133000000
  840.83 0.6187067542000000
  840.90 0.6233716285999999
  840.97 0.6280131199000000
  841.04 0.6326327628000000
  841.11 0.6372455596000000
  841.18 0.6418512739000000
  841.26 0.6464478527999999
  841.33 0.6510332419000000
  841.40 0.6556053841000000
  841.47 0.6601622208000000
  841.54 0.6647016910000000
  841.61 0.6692217316000000
  841.68 0.6737202776000000
  841.75 0.6781952618000000
  841.82 0.6826446148999999
  841.89 0.6870662655999999
  841.96 0.6914581405000000
  842.03 0.6958192153000000
  842.11 0.7001551115000000
  842.18 0.7044675030999999
  842.25 0.7087569940000000
  842.32 0.7130241886000001
  842.39 0.7172696920000000
  842.46 0.7214941097999999
  842.53 0.7256980485000000
  842.60 0.7298821149000000
  842.67 0.7340469166000000
  842.74 0.7381930617000000
  842.82 0.7423211591000000
  842.89 0.7464318181000000
  842.96 0.7505256487000000
  843.03 0.7546035092000000
  843.10 0.7586677908000000
  843.17 0.7627180851000001
  843.24 0.7667533045000000
  843.31 0.7707723603000000
  843.38 0.7747741627000000
  843.45 0.7787576209000000
  843.53 0.7827216429000000
  843.60 0.7866651356000000
  843.67 0.7905870049000000
  843.74 0.7944861554000000
  843.81 0.7983614908000000
  843.88 0.8022119137000000
  843.95 0.8060363253000000
  844.02 0.8098353723000000
  844.10 0.8136285181000000
  844.17 0.8174175312000000
  844.24 0.8211973835000000
  844.31 0.8249630417000000
  844.38 0.8287094674000000
  844.45 0.8324316171000000
  844.52 0.8361244423000000
  844.59 0.8397828892000000
  844.67 0.8434018991000000
  844.74 0.8469764081000000
  844.81 0.8505013470000000
  844.88 0.8539716417000000
  844.95 0.8573822129000001
  845.02 0.8607341240000000
  845.09 0.8641045044000000
  845.17 0.8675028360000000
  845.24 0.8709095866000000
  845.31 0.8743052044000000
  845.38 0.8776701175000000
  845.45 0.8809847345000000
  845.52 0.8842294437000000
  845.59 0.8873846138000000
  845.67 0.8904305935000000
  845.74 0.8933477117000000
  845.81 0.8961162772000000
  845.88 0.8987165788000000
  845.95 0.9011288856000000
  846.02 0.9033458668000000
  846.10 0.9055123916000000
  846.17 0.9076626804000000
  846.24 0.9097804475000000
  846.31 0.9118493907000000
  846.38 0.9138531910000000
  846.45 0.9157755133000000
  846.53 0.9176000056000000
  846.60 0.9193102993000000
  846.67 0.9208900093000000
  846.74 0.9223227339000000
  846.81 0.9235920546000000
  846.88 0.9246815365000000
  846.96 0.9255747277000000
  847.03 0.9262700822000000
  847.10 0.9269102851000000
  847.17 0.9275309881000000
  847.24 0.9281272983000000
  847.31 0.9286943175000000
  847.39 0.9292271428000000
  847.46 0.9297208662000001
  847.53 0.9301705746000000
  847.60 0.9305713501000000
  847.67 0.9309182697000000
  847.74 0.9312064055000000
  847.82 0.9314308245000000
  847.89 0.9315865888000000
  847.96 0.9316687554000000
  848.03 0.9316768166000000
  848.10 0.9316408866000000
  848.18 0.9315697379000000
  848.25 0.9314660425000000
  848.32 0.9313324754000000
  848.39 0.9311717143000000
  848.46 0.9309864396000000
  848.54 0.9307793343000000
  848.61 0.9305530844000000
  848.68 0.9303103785000000
  848.75 0.9300539078000000
  848.82 0.9297863665000000
  848.90 0.9295104514000000
  848.97 0.9292288622000000
  849.04 0.9289334131000000
  849.11 0.9285765723000000
  849.18 0.9281568978000000
  849.26 0.9276795913000000
  849.33 0.9271498596000000
  849.40 0.9265729150000001
  849.47 0.9259539751000000
  849.55 0.9252982627000000
  849.62 0.9246110060000000
  849.69 0.9238974386000000
  849.76 0.9231627995000000
  849.83 0.9224123329000000
  849.91 0.9216512883000000
  849.98 0.9208849209000000
  850.05 0.9201031969000000
  850.12 0.9192676089000000
  850.20 0.9183800924000000
  850.27 0.9174452332000000
  850.34 0.9164676215000001
  850.41 0.9154518523000000
  850.48 0.9144025254000000
  850.56 0.9133242452000000
  850.63 0.9122216209000000
  850.70 0.9110992662000000
  850.77 0.9099617998000000
  850.85 0.9088138448999999
  850.92 0.9076600296000000
  850.99 0.9065049866000000
  851.06 0.9053239358000000
  851.14 0.9040796144000000
  851.21 0.9027827238000000
  851.28 0.9014445257000000
  851.35 0.9000762933000001
  851.43 0.8986893115000000
  851.50 0.8972948766000000
  851.57 0.8959042965000000
  851.64 0.8945288906000000
  851.72 0.8931799900000000
  851.79 0.8918689372000000
  851.86 0.8906070864000000
  851.93 0.8894058034000000
  852.01 0.8882760525000000
  852.08 0.8871684781000000
  852.15 0.8860497026000000
  852.22 0.8849291506000000
  852.30 0.8838162567000000
  852.37 0.8827204651000000
  852.44 0.8816512295000000
  852.51 0.8806180135000000
  852.59 0.8796302901000000
  852.66 0.8786975422000000
  852.73 0.8778292623000000
  852.81 0.8770349527000000
  852.88 0.8763241253000000
  852.95 0.8757063017000000
  853.02 0.8751849432000000
  853.10 0.8746877880000000
  853.17 0.8741955992000000
  853.24 0.8737140031000000
  853.32 0.8732486321000000
  853.39 0.8728051240000000
  853.46 0.8723891226000000
  853.53 0.8720062775000000
  853.61 0.8716622438000000
  853.68 0.8713626828000000
  853.75 0.8711132612000000
  853.83 0.8709196516000000
  853.90 0.8707875327000000
  853.97 0.8707225886000000
  854.04 0.8707186004000000
  854.12 0.8707298457000000
  854.19 0.8707504634000000
  854.26 0.8707796303000001
  854.34 0.8708165225000000
  854.41 0.8708603150000001
  854.48 0.8709101820000000
  854.55 0.8709652971000000
  854.63 0.8710248327000000
  854.70 0.8710879607000001
  854.77 0.8711538517000000
  854.85 0.8712216760000000
  854.92 0.8712906026000000
  854.99 0.8713597998000000
  855.07 0.8714308702000000
  855.14 0.8715074282000000
  855.21 0.8715902837000000
  855.29 0.8716802241000000
  855.36 0.8717780374000000
  855.43 0.8718845126000000
  855.51 0.8720004394000000
  855.58 0.8721266084000000
  855.65 0.8722638107000000
  855.72 0.8724128387000000
  855.80 0.8725744853000000
  855.87 0.8727495441999999
  855.94 0.8729388100000000
  856.02 0.8731462530000000
  856.09 0.8734421510000000
  856.16 0.8738438093000001
  856.24 0.8743361948000000
  856.31 0.8749042587000000
  856.38 0.8755329370000000
  856.46 0.8762071500000000
  856.53 0.8769118025000000
  856.60 0.8776317839000000
  856.68 0.8783519678000000
  856.75 0.8790572124000000
  856.82 0.8797323605000000
  856.90 0.8803622390000000
  856.97 0.8809316594000000
  857.04 0.8814340785000000
  857.12 0.8818979224000000
  857.19 0.8823327982000000
  857.27 0.8827453729000000
  857.34 0.8831423199000000
  857.41 0.8835303198000000
  857.49 0.8839160599000000
  857.56 0.8843062344000000
  857.63 0.8847075446000000
  857.71 0.8851266985000000
  857.78 0.8855704109000000
  857.85 0.8860454038000000
  857.93 0.8865584058000000
  858.00 0.8871161533000000
  858.07 0.8877275055000000
  858.15 0.8883939701000000
  858.22 0.8891115241000001
  858.30 0.8898761408000000
  858.37 0.8906837889000000
  858.44 0.8915304333000000
  858.52 0.8924120343000000
  858.59 0.8933245486000000
  858.66 0.8942639281000000
  858.74 0.8952261210000000
  858.81 0.8962070711000000
  858.89 0.8972027181000000
  858.96 0.8982089974000000
  859.03 0.8992249152000000
  859.11 0.9002709651000000
  859.18 0.9013512456000000
  859.25 0.9024651959000000
  859.33 0.9036122547000000
  859.40 0.9047918600000000
  859.48 0.9060034494000000
  859.55 0.9072464598000000
  859.62 0.9085203275000000
  859.70 0.9098244883000000
  859.77 0.9111583772000000
  859.85 0.9125214288000000
  859.92 0.9139130771000000
  859.99 0.9153327554000000
  860.07 0.9168102100000000
  860.14 0.9183797666000000
  860.22 0.9200276975000000
  860.29 0.9217399218000000
  860.36 0.9235023444000000
  860.44 0.9253008552000000
  860.51 0.9271213300000000
  860.59 0.9289496296000000
  860.66 0.9307716005000000
  860.73 0.9325730743000000
  860.81 0.9343398681000000
  860.88 0.9360577844000000
  860.96 0.9377126110000000
  861.03 0.9392957390000000
  861.10 0.9408490850000000
  861.18 0.9423841827000000
  861.25 0.9439009647000000
  861.33 0.9453993630999999
  861.40 0.9468793104000000
  861.47 0.9483407388000000
  861.55 0.9497835803000000
  861.62 0.9512077672000000
  861.70 0.9526132314000000
  861.77 0.9539999050000000
  861.85 0.9553677197000000
  861.92 0.9567166075000000
  861.99 0.9580465001000000
  862.07 0.9593578015000001
  862.14 0.9606514397000000
  862.22 0.9619279539000000
  862.29 0.9631878819000000
  862.37 0.9644317615000000
  862.44 0.9656601317000000
  862.52 0.9668735316000000
  862.59 0.9680725010000000
  862.66 0.9692575803000000
  862.74 0.9704293105000000
  862.81 0.9715882330000000
  862.89 0.9727348899000000
  862.96 0.9738698239000000
  863.04 0.9749939191000000
  863.11 0.9761093840000000
  863.19 0.9772158337000000
  863.26 0.9783124390000000
  863.33 0.9793983699000000
  863.41 0.9804727955000000
  863.48 0.9815348842000000
  863.56 0.9825838032000000
  863.63 0.9836187192000000
  863.71 0.9846387979000000
  863.78 0.9856432040999999
  863.86 0.9866311017000000
  863.93 0.9876016538000000
  864.01 0.9885543563000000
  864.08 0.9895526679000000
  864.15 0.9906263940000000
  864.23 0.9917496364000000
  864.30 0.9928964702000000
  864.38 0.9940409434000000
  864.45 0.9951570771000000
  864.53 0.9962188657000000
  864.60 0.9972002762000000
  864.68 0.9980752489000000
  864.75 0.9988176971000000
  864.83 0.9994015069000000
  864.90 0.9998005373000000
  864.98 0.9999886203000000
  865.05 0.9999646259000000
  865.13 0.9997930078000000
  865.20 0.9994862779000000
  865.28 0.9990526046000000
  865.35 0.9985001650999999
  865.43 0.9978371451000000
  865.50 0.9970717386000000
  865.58 0.9962121484000001
  865.65 0.9952665858000000
  865.73 0.9942432705000001
  865.80 0.9931504310000000
  865.88 0.9919963040999999
  865.95 0.9907891354000000
  866.03 0.9895046698000000
  866.10 0.9877638768000000
  866.18 0.9854913971000000
  866.25 0.9827326841000000
  866.33 0.9795332388000000
  866.40 0.9759386094000000
  866.48 0.9719943916000000
  866.55 0.9677462288000001
  866.63 0.9632398120000000
  866.70 0.9585208794000000
  866.78 0.9536352174000000
  866.85 0.9486286596000000
  866.93 0.9435470877000000
  867.00 0.9384360987000000
  867.08 0.9328176327000000
  867.15 0.9263319024000000
  867.23 0.9191253518000000
  867.30 0.9113445775000000
  867.38 0.9031363288000001
  867.45 0.8946475082000001
  867.53 0.8860251709000000
  867.60 0.8774165256000001
  867.68 0.8689689341000000
  867.75 0.8608299118000000
  867.83 0.8531471277000000
  867.90 0.8460684043000000
  867.98 0.8397417184000000
  868.06 0.8341409990000000
  868.13 0.8288756562000000
  868.21 0.8238865439000000
  868.28 0.8191344283000001
  868.36 0.8145800345999999
  868.43 0.8101840471000000
  868.51 0.8059071090000000
  868.58 0.8017098225000000
  868.66 0.7975527487000000
  868.73 0.7933964073999999
  868.81 0.7892012776000000
  868.89 0.7849277966000000
  868.96 0.7805363608000000
  869.04 0.7760094747000000
  869.11 0.7714651865000000
  869.19 0.7669251999000000
  869.26 0.7623868625000000
  869.34 0.7578475188000000
  869.41 0.7533045108999999
  869.49 0.7487551778000000
  869.57 0.7441968559000000
  869.64 0.7396268788000000
  869.72 0.7350425773000000
  869.79 0.7304412794000000
  869.87 0.7258203103000000
  869.94 0.7211769926000000
  870.02 0.7165089004000000
  870.09 0.7118197438000000
  870.17 0.7071122023000000
  870.25 0.7023870549000000
  870.32 0.6976450818000000
  870.40 0.6928870638000000
  870.47 0.6881137827000000
  870.55 0.6833260209000001
  870.63 0.6785245618000000
  870.70 0.6737101894999999
  870.78 0.6688836889999999
  870.85 0.6640458460999999
  870.93 0.6591974475000000
  871.00 0.6543392168000000
  871.08 0.6494510316000000
  871.16 0.6445221255000000
  871.23 0.6395608186000000
  871.31 0.6345754396000000
  871.38 0.6295743262000000
  871.46 0.6245658246000000
  871.54 0.6195582897000000
  871.61 0.6145600852999999
  871.69 0.6095795838000000
  871.76 0.6046251666000000
  871.84 0.5997052235000000
  871.92 0.5948281533999999
  871.99 0.5900023637000000
  872.07 0.5852239133000000
  872.14 0.5804761552000000
  872.22 0.5757565795000000
  872.30 0.5710628416000000
  872.37 0.5663925943000000
  872.45 0.5617434878999999
  872.52 0.5571131702000000
  872.60 0.5524992866000000
  872.68 0.5478994801000000
  872.75 0.5433113910000000
  872.83 0.5387326574000000
  872.91 0.5341609147000000
  872.98 0.5295937960000000
  873.06 0.5250321915000000
  873.13 0.5204826980000000
  873.21 0.5159454154999999
  873.29 0.5114201177000000
  873.36 0.5069065778000000
  873.44 0.5024045687000001
  873.52 0.4979138634000000
  873.59 0.4934342343000000
  873.67 0.4889654538000000
  873.74 0.4845072939000000
  873.82 0.4800595265000000
  873.90 0.4756219231000000
  873.97 0.4711942551000000
  874.05 0.4667773790000000
  874.13 0.4623744537000000
  874.20 0.4579847458000000
  874.28 0.4536071817000000
  874.36 0.4492406870000000
  874.43 0.4448841857000000
  874.51 0.4405366012000000
  874.58 0.4361968553000000
  874.66 0.4318638689000000
  874.74 0.4275365618000000
  874.81 0.4232138525000000
  874.89 0.4188946585000000
  874.97 0.4145778961000000
  875.04 0.4102649307000000
  875.12 0.4059652978000000
  875.20 0.4016779759000000
  875.27 0.3974005210000000
  875.35 0.3931304868000000
  875.43 0.3888654241000000
  875.50 0.3846028816000000
  875.58 0.3803404049000000
  875.66 0.3760755374000000
  875.73 0.3718058198000000
  875.81 0.3675287901000000
  875.89 0.3632419839000000
  875.96 0.3589429341000000
  876.04 0.3546315137000000
  876.12 0.3503183923000000
  876.19 0.3460040264000000
  876.27 0.3416869946000000
  876.35 0.3373658741000000
  876.42 0.3330392405000000
  876.50 0.3287056679000000
  876.58 0.3243637291000000
  876.65 0.3200119952000000
  876.73 0.3156490358000000
  876.81 0.3112734190000000
  876.89 0.3068837116000000
  876.96 0.3024784787000000
  877.04 0.2980552115000000
  877.12 0.2936081043000000
  877.19 0.2891394017000000
  877.27 0.2846525499000000
  877.35 0.2801509986000000
  877.42 0.2756382012000000
  877.50 0.2711176147000000
  877.58 0.2665926998000000
  877.65 0.2620669209000000
  877.73 0.2575437458000000
  877.81 0.2530266462000000
  877.89 0.2485190973000000
  877.96 0.2440245782000000
  878.04 0.2395385092000000
  878.12 0.2350226604000000
  878.19 0.2304804734000000
  878.27 0.2259224468000000
  878.35 0.2213590908000000
  878.43 0.2168009264000000
  878.50 0.2122584856000000
  878.58 0.2077423118000000
  878.66 0.2032629594000000
  878.73 0.1988309937000000
  878.81 0.1944569915000000
  878.89 0.1901515404000000
  878.97 0.1859252394000000
  879.04 0.1817766583000000
  879.12 0.1776577960000000
  879.20 0.1735668473000000
  879.28 0.1695090200000000
  879.35 0.1654895271000000
  879.43 0.1615135873000000
  879.51 0.1575864249000000
  879.58 0.1537132696000000
  879.66 0.1498993564000000
  879.74 0.1461499261000000
  879.82 0.1424702250000000
  879.89 0.1388655047000000
  879.97 0.1353410225000000
  880.05 0.1318874959000000
  880.13 0.1284591586000000
  880.20 0.1250598400000000
  880.28 0.1216982027000000
  880.36 0.1183829180000000
  880.44 0.1151226667000000
  880.51 0.1119261387000000
  880.59 0.1088020329000000
  880.67 0.1057590577000000
  880.75 0.1028059304000000
  880.82 0.0999513775300000
  880.90 0.0972041349200000
  880.98 0.0945729475700000
  881.06 0.0920470938500000
  881.13 0.0895817824800000
  881.21 0.0871755957000000
  881.29 0.0848294870100000
  881.37 0.0825444108700000
  881.45 0.0803213227800000
  881.52 0.0781611791900000
  881.60 0.0760649375700000
  881.68 0.0740335563800000
  881.76 0.0720679950700000
  881.83 0.0701692141000000
  881.91 0.0683381749100000
  881.99 0.0665758399600000
  882.07 0.0648720421100000
  882.15 0.0632095621600000
  882.22 0.0615890150800000
  882.30 0.0600112717200000
  882.38 0.0584772038500000
  882.46 0.0569876841300000
  882.53 0.0555435861500000
  882.61 0.0541457844200000
  882.69 0.0527951543500000
  882.77 0.0514925722600000
  882.85 0.0502389154000000
  882.92 0.0490350619300000
  883.00 0.0478818896900000
  883.08 0.0467777842400000
  883.16 0.0457179834500000
  883.24 0.0446983853900000
  883.31 0.0437148838000000
  883.39 0.0427633680400000
  883.47 0.0418397230900000
  883.55 0.0409398295900000
  883.63 0.0400595637700000
  883.70 0.0391947975000000
  883.78 0.0383413982700000
  883.86 0.0374952291500000
  883.94 0.0366521488500000
  884.02 0.0358084919700000
  884.10 0.0349745042400000
  884.17 0.0341550078300000
  884.25 0.0333488959500000
  884.33 0.0325550606100000
  884.41 0.0317723926500000
  884.49 0.0309997817500000
  884.56 0.0302361163800000
  884.64 0.0294802838300000
  884.72 0.0287311702200000
  884.80 0.0279876604800000
  884.88 0.0272486383400000
  884.96 0.0265129863700000
  885.03 0.0257794702500000
  885.11 0.0250469016400000
  885.19 0.0243162917700000
  885.27 0.0235889790100000
  885.35 0.0228663031600000
  885.43 0.0221496054500000
  885.50 0.0214402285200000
  885.58 0.0207395164300000
  885.66 0.0200488147000000
  885.74 0.0193694702300000
  885.82 0.0187028313900000
  885.90 0.0180502479600000
  885.98 0.0174130711600000
  886.05 0.0167868503300000
  886.13 0.0161563568900000
  886.21 0.0155244436800000
  886.29 0.0148952803900000
  886.37 0.0142730411500000
  886.45 0.0136619045100000
  886.52 0.0130660534900000
  886.60 0.0124896755400000
  886.68 0.0119369625700000
  886.76 0.0114121109500000
  886.84 0.0109193214900000
  886.92 0.0104627994800000
  887.00 0.0100467546800000
  887.08 0.0096610069070000
  887.15 0.0092900194050000
  887.23 0.0089336688590000
  887.31 0.0085918593680000
  887.39 0.0082644949270000
  887.47 0.0079514794220000
  887.55 0.0076527166350000
  887.63 0.0073681102400000
  887.71 0.0070975638050000
  887.78 0.0068409807900000
  887.86 0.0065982645500000
  887.94 0.0063693183320000
  888.02 0.0061539843310000
  888.10 0.0059506863080000
  888.18 0.0057580106180000
  888.26 0.0055749469140000
  888.34 0.0054004837690000
  888.42 0.0052336086730000
  888.49 0.0050733080360000
  888.57 0.0049185671850000
  888.65 0.0047683703620000
  888.73 0.0046217007250000
  888.81 0.0044775403440000
  888.89 0.0043348702050000
  888.97 0.0041926702030000
  889.05 0.0040494140000000
  889.13 0.0039030842710000
  889.21 0.0037550132470000
  889.28 0.0036068442040000
  889.36 0.0034602221760000
  889.44 0.0033167939500000
  889.52 0.0031782080720000
  889.60 0.0030461148450000
  889.68 0.0029221663360000
  889.76 0.0028080163720000
  889.84 0.0027053205440000
  889.92 0.0026157362090000
  890.00 0.0025409224900000
  890.08 0.0024786566820000
  890.15 0.0024240783860000
  890.23 0.0023758598460000
  890.31 0.0023326794910000
  890.39 0.0022932143330000
  890.47 0.0022561399730000
  890.55 0.0022201305920000
  890.63 0.0021838589540000
  890.71 0.0021459964060000
  890.79 0.0021052128710000
  890.87 0.0020601768540000
  890.95 0.0020095554360000
  891.03 0.0019516316820000
  891.11 0.0018815478420000
  891.19 0.0018001468030000
  891.27 0.0017099332190000
  891.35 0.0016134144210000
  891.42 0.0015131004300000
  891.50 0.0014115039510000
  891.58 0.0013111403790000
  891.66 0.0012145278020000
  891.74 0.0011241870030000
  891.82 0.0010426414600000
  891.90 0.0009724173521000
