# HIMAWARI9 relative spectral response function for band 3
# (see http://www.data.jma.go.jp/mscweb/en/himawari89/space_segment/spsg_ahi.html#band)
# converted from 
# http://www.data.jma.go.jp/mscweb/en/himawari89/space_segment/srf_201309/AHI-08_SpectralResponsivity.zip
# http://www.data.jma.go.jp/mscweb/en/himawari89/space_segment/srf_201310/AHI-09_SpectralResponsivity.zip
# 
# LAMBDA   RSR
# 
  578.27 0.0009942090264000
  578.30 0.0010006994910000
  578.34 0.0010071182680000
  578.37 0.0010134868000000
  578.40 0.0010198265480000
  578.44 0.0010261589860000
  578.47 0.0010325056040000
  578.50 0.0010388879040000
  578.54 0.0010453274070000
  578.57 0.0010518456460000
  578.60 0.0010584641710000
  578.64 0.0010652045450000
  578.67 0.0010720883470000
  578.70 0.0010791371720000
  578.74 0.0010863726270000
  578.77 0.0010938163370000
  578.80 0.0011014899400000
  578.84 0.0011094150910000
  578.87 0.0011176134580000
  578.90 0.0011261067250000
  578.94 0.0011349165910000
  578.97 0.0011440647700000
  579.01 0.0011535720560000
  579.04 0.0011634080320000
  579.07 0.0011735505820000
  579.11 0.0011840021870000
  579.14 0.0011947653300000
  579.17 0.0012058424980000
  579.21 0.0012172361770000
  579.24 0.0012289488540000
  579.27 0.0012409830210000
  579.31 0.0012533411700000
  579.34 0.0012660257930000
  579.37 0.0012790393870000
  579.41 0.0012923844470000
  579.44 0.0013060634740000
  579.47 0.0013200789660000
  579.51 0.0013344334270000
  579.54 0.0013491293600000
  579.58 0.0013641692700000
  579.61 0.0013795556650000
  579.64 0.0013952910530000
  579.68 0.0014113779460000
  579.71 0.0014278188550000
  579.74 0.0014446162940000
  579.78 0.0014617727790000
  579.81 0.0014792908270000
  579.84 0.0014971729580000
  579.88 0.0015154216930000
  579.91 0.0015340395530000
  579.95 0.0015530290630000
  579.98 0.0015723927490000
  580.01 0.0015921656330000
  580.05 0.0016126791320000
  580.08 0.0016340130400000
  580.11 0.0016561594690000
  580.15 0.0016791105260000
  580.18 0.0017028583110000
  580.21 0.0017273949200000
  580.25 0.0017527124410000
  580.28 0.0017788029610000
  580.32 0.0018056585550000
  580.35 0.0018332712990000
  580.38 0.0018616332570000
  580.42 0.0018907364930000
  580.45 0.0019205730630000
  580.48 0.0019511350150000
  580.52 0.0019824143960000
  580.55 0.0020144032440000
  580.59 0.0020470935920000
  580.62 0.0020804774690000
  580.65 0.0021145468970000
  580.69 0.0021492938910000
  580.72 0.0021847104640000
  580.75 0.0022207886190000
  580.79 0.0022575203580000
  580.82 0.0022948976730000
  580.86 0.0023329125530000
  580.89 0.0023715569800000
  580.92 0.0024108229310000
  580.96 0.0024507023790000
  580.99 0.0024911872870000
  581.02 0.0025324197680000
  581.06 0.0025748307900000
  581.09 0.0026184586810000
  581.13 0.0026633155160000
  581.16 0.0027094133770000
  581.19 0.0027567643560000
  581.23 0.0028053805520000
  581.26 0.0028552740730000
  581.29 0.0029064570350000
  581.33 0.0029589415630000
  581.36 0.0030127397890000
  581.40 0.0030678638550000
  581.43 0.0031243259090000
  581.46 0.0031821381090000
  581.50 0.0032413126210000
  581.53 0.0033018616200000
  581.56 0.0033637972870000
  581.60 0.0034271318150000
  581.63 0.0034918774020000
  581.67 0.0035580462560000
  581.70 0.0036256505930000
  581.73 0.0036947026370000
  581.77 0.0037652146210000
  581.80 0.0038371987860000
  581.84 0.0039106673810000
  581.87 0.0039856326650000
  581.90 0.0040621069030000
  581.94 0.0041401023700000
  581.97 0.0042196313490000
  582.00 0.0043007208640000
  582.04 0.0043844342830000
  582.07 0.0044713996490000
  582.11 0.0045615865290000
  582.14 0.0046549644700000
  582.17 0.0047515029970000
  582.21 0.0048511716140000
  582.24 0.0049539398030000
  582.28 0.0050597770220000
  582.31 0.0051686527110000
  582.34 0.0052805362850000
  582.38 0.0053953971400000
  582.41 0.0055132046490000
  582.45 0.0056339281620000
  582.48 0.0057575370090000
  582.51 0.0058840004980000
  582.55 0.0060132879150000
  582.58 0.0061453685230000
  582.61 0.0062802115650000
  582.65 0.0064177862610000
  582.68 0.0065580618090000
  582.72 0.0067010073870000
  582.75 0.0068465921480000
  582.78 0.0069947852260000
  582.82 0.0071455557310000
  582.85 0.0072988727530000
  582.89 0.0074547053580000
  582.92 0.0076130225910000
  582.95 0.0077737934760000
  582.99 0.0079369870140000
  583.02 0.0081035099690000
  583.06 0.0082764050140000
  583.09 0.0084557648480000
  583.12 0.0086414276660000
  583.16 0.0088332315490000
  583.19 0.0090310144660000
  583.23 0.0092346142690000
  583.26 0.0094438686980000
  583.29 0.0096586153780000
  583.33 0.0098786918190000
  583.36 0.0101039354200000
  583.40 0.0103341834600000
  583.43 0.0105692731000000
  583.46 0.0108090414000000
  583.50 0.0110533253000000
  583.53 0.0113019616200000
  583.57 0.0115547870700000
  583.60 0.0118116382400000
  583.63 0.0120723516000000
  583.67 0.0123367635300000
  583.70 0.0126047102700000
  583.74 0.0128760279600000
  583.77 0.0131505526000000
  583.81 0.0134281201100000
  583.84 0.0137085662700000
  583.87 0.0139917267500000
  583.91 0.0142774371200000
  583.94 0.0145655328000000
  583.98 0.0148558491300000
  584.01 0.0151485871000000
  584.04 0.0154497091700000
  584.08 0.0157609474500000
  584.11 0.0160817588700000
  584.15 0.0164115999800000
  584.18 0.0167499269800000
  584.21 0.0170961956600000
  584.25 0.0174498614200000
  584.28 0.0178103793100000
  584.32 0.0181772039700000
  584.35 0.0185497896600000
  584.39 0.0189275902600000
  584.42 0.0193100592800000
  584.45 0.0196966498200000
  584.49 0.0200868146200000
  584.52 0.0204800060200000
  584.56 0.0208756759700000
  584.59 0.0212732760600000
  584.62 0.0216722574800000
  584.66 0.0220720710300000
  584.69 0.0224721671200000
  584.73 0.0228719958000000
  584.76 0.0232710067100000
  584.80 0.0236686491100000
  584.83 0.0240643718800000
  584.86 0.0244576235100000
  584.90 0.0248478520900000
  584.93 0.0252345053500000
  584.97 0.0256170306000000
  585.00 0.0259948757400000
  585.03 0.0263709067600000
  585.07 0.0267480657700000
  585.10 0.0271262410500000
  585.14 0.0275053208100000
  585.17 0.0278851931800000
  585.21 0.0282657462300000
  585.24 0.0286468679100000
  585.27 0.0290284461300000
  585.31 0.0294103687000000
  585.34 0.0297925233600000
  585.38 0.0301747977800000
  585.41 0.0305570795200000
  585.45 0.0309392561000000
  585.48 0.0313212149200000
  585.51 0.0317028433500000
  585.55 0.0320840286300000
  585.58 0.0324646579600000
  585.62 0.0328446184400000
  585.65 0.0332237971000000
  585.69 0.0336020808700000
  585.72 0.0339793566400000
  585.75 0.0343555111900000
  585.79 0.0347304312200000
  585.82 0.0351040033700000
  585.86 0.0354761141800000
  585.89 0.0358466501300000
  585.93 0.0362154976000000
  585.96 0.0365825429100000
  585.99 0.0369476722800000
  586.03 0.0373094281600000
  586.06 0.0376656957400000
  586.10 0.0380169523300000
  586.13 0.0383637223400000
  586.17 0.0387065305400000
  586.20 0.0390459021000000
  586.24 0.0393823625300000
  586.27 0.0397164377200000
  586.30 0.0400486539500000
  586.34 0.0403795378300000
  586.37 0.0407096163800000
  586.41 0.0410394169700000
  586.44 0.0413694673400000
  586.48 0.0417002956200000
  586.51 0.0420324302800000
  586.54 0.0423664002100000
  586.58 0.0427027346100000
  586.61 0.0430419631100000
  586.65 0.0433846156800000
  586.68 0.0437312226800000
  586.72 0.0440823148100000
  586.75 0.0444384231900000
  586.79 0.0448000792800000
  586.82 0.0451678149300000
  586.85 0.0455421623600000
  586.89 0.0459236541500000
  586.92 0.0463128232800000
  586.96 0.0467102030800000
  586.99 0.0471163272800000
  587.03 0.0475301790700000
  587.06 0.0479486245200000
  587.10 0.0483717140900000
  587.13 0.0487996259200000
  587.16 0.0492325382700000
  587.20 0.0496706295100000
  587.23 0.0501140781600000
  587.27 0.0505630628500000
  587.30 0.0510177623200000
  587.34 0.0514783554700000
  587.37 0.0519450213000000
  587.41 0.0524179389400000
  587.44 0.0528972876500000
  587.48 0.0533832468200000
  587.51 0.0538759959500000
  587.54 0.0543757146800000
  587.58 0.0548825827700000
  587.61 0.0553967801100000
  587.65 0.0559184867100000
  587.68 0.0564478827100000
  587.72 0.0569851483800000
  587.75 0.0575304641000000
  587.79 0.0580840103900000
  587.82 0.0586459679100000
  587.85 0.0592165174100000
  587.89 0.0597958397900000
  587.92 0.0603841160800000
  587.96 0.0609815274400000
  587.99 0.0615882551200000
  588.03 0.0622063832800000
  588.06 0.0628397003200000
  588.10 0.0634879866700000
  588.13 0.0641509041900000
  588.17 0.0648281145400000
  588.20 0.0655192791300000
  588.24 0.0662240591100000
  588.27 0.0669421154000000
  588.30 0.0676731087000000
  588.34 0.0684166994300000
  588.37 0.0691725478000000
  588.41 0.0699403137600000
  588.44 0.0707196570300000
  588.48 0.0715102370800000
  588.51 0.0723117131500000
  588.55 0.0731237442200000
  588.58 0.0739459890400000
  588.62 0.0747781061100000
  588.65 0.0756197537100000
  588.69 0.0764705898400000
  588.72 0.0773302722800000
  588.75 0.0781984585700000
  588.79 0.0790748060000000
  588.82 0.0799589716200000
  588.86 0.0808506122300000
  588.89 0.0817493843900000
  588.93 0.0826549444200000
  588.96 0.0835669483900000
  589.00 0.0844850521300000
  589.03 0.0854160237900000
  589.07 0.0863684377500000
  589.10 0.0873413139700000
  589.14 0.0883336291700000
  589.17 0.0893443593500000
  589.21 0.0903724797800000
  589.24 0.0914169650100000
  589.28 0.0924767888400000
  589.31 0.0935509243700000
  589.34 0.0946383439600000
  589.38 0.0957380192400000
  589.41 0.0968489211100000
  589.45 0.0979700197400000
  589.48 0.0991002845800000
  589.52 0.1002386843000000
  589.55 0.1013841870000000
  589.59 0.1025357598000000
  589.62 0.1036923693000000
  589.66 0.1048529812000000
  589.69 0.1060165607000000
  589.73 0.1071820720000000
  589.76 0.1083484787000000
  589.80 0.1095147437000000
  589.83 0.1106798291000000
  589.87 0.1118426962000000
  589.90 0.1130023058000000
  589.94 0.1141576178000000
  589.97 0.1153075912000000
  590.01 0.1164513553000000
  590.04 0.1175972238000000
  590.07 0.1187499266000000
  590.11 0.1199089956000000
  590.14 0.1210739623000000
  590.18 0.1222443581000000
  590.21 0.1234197138000000
  590.25 0.1245995600000000
  590.28 0.1257834270000000
  590.32 0.1269708447000000
  590.35 0.1281613427000000
  590.39 0.1293544502000000
  590.42 0.1305496962000000
  590.46 0.1317466093000000
  590.49 0.1329447176000000
  590.53 0.1341435491000000
  590.56 0.1353426314000000
  590.60 0.1365414917000000
  590.63 0.1377396569000000
  590.67 0.1389366537000000
  590.70 0.1401320083000000
  590.74 0.1413252464000000
  590.77 0.1425158939000000
  590.81 0.1437034757000000
  590.84 0.1448875170000000
  590.88 0.1460675421000000
  590.91 0.1472430754000000
  590.95 0.1484136407000000
  590.98 0.1495787616000000
  591.02 0.1507379059000000
  591.05 0.1518905993000000
  591.09 0.1530372754000000
  591.12 0.1541784839000000
  591.16 0.1553147748000000
  591.19 0.1564466986000000
  591.23 0.1575748060000000
  591.26 0.1586996483000000
  591.30 0.1598217771000000
  591.33 0.1609417443000000
  591.37 0.1620601025000000
  591.40 0.1631774043000000
  591.44 0.1642942029000000
  591.47 0.1654110520000000
  591.51 0.1665285054000000
  591.54 0.1676471175000000
  591.58 0.1687674430000000
  591.61 0.1698900372000000
  591.65 0.1710154555000000
  591.68 0.1721442539000000
  591.72 0.1732769886000000
  591.75 0.1744142165000000
  591.79 0.1755564946000000
  591.82 0.1767043804000000
  591.86 0.1778584318000000
  591.89 0.1790192072000000
  591.93 0.1801872651000000
  591.96 0.1813631648000000
  592.00 0.1825474657000000
  592.03 0.1837411049000000
  592.07 0.1849444825000000
  592.10 0.1861569503000000
  592.14 0.1873778516000000
  592.17 0.1886065293000000
  592.21 0.1898423256000000
  592.24 0.1910845826000000
  592.28 0.1923326416000000
  592.31 0.1935858435000000
  592.35 0.1948435290000000
  592.38 0.1961050380000000
  592.42 0.1973697100000000
  592.45 0.1986368842000000
  592.49 0.1999058991000000
  592.52 0.2011760929000000
  592.56 0.2024468033000000
  592.59 0.2037173675000000
  592.63 0.2049871222000000
  592.66 0.2062554037000000
  592.70 0.2075215477000000
  592.73 0.2087848895000000
  592.77 0.2100447641000000
  592.80 0.2113005057000000
  592.84 0.2125514483000000
  592.87 0.2137969253000000
  592.91 0.2150362696000000
  592.94 0.2162688138000000
  592.98 0.2174938897000000
  593.01 0.2187112990000000
  593.05 0.2199248407000000
  593.08 0.2211355616000000
  593.12 0.2223435500000000
  593.15 0.2235488947000000
  593.19 0.2247516842000000
  593.23 0.2259520072000000
  593.26 0.2271499525000000
  593.30 0.2283456089000000
  593.33 0.2295390654000000
  593.37 0.2307304109000000
  593.40 0.2319197344000000
  593.44 0.2331071250000000
  593.47 0.2342926719000000
  593.51 0.2354764642000000
  593.54 0.2366585913000000
  593.58 0.2378391425000000
  593.61 0.2390182072000000
  593.65 0.2401958749000000
  593.68 0.2413722350000000
  593.72 0.2425473773000000
  593.75 0.2437213914000000
  593.79 0.2448943669000000
  593.82 0.2460663937000000
  593.86 0.2472375617000000
  593.89 0.2484079607000000
  593.93 0.2495776808000000
  593.97 0.2507468119000000
  594.00 0.2519154437000000
  594.04 0.2530816705000000
  594.07 0.2542438779000000
  594.11 0.2554023970000000
  594.14 0.2565575589000000
  594.18 0.2577096950000000
  594.21 0.2588591368000000
  594.25 0.2600062163000000
  594.28 0.2611512656000000
  594.32 0.2622946169000000
  594.35 0.2634366029000000
  594.39 0.2645775563000000
  594.42 0.2657178103000000
  594.46 0.2668576980000000
  594.49 0.2679975530000000
  594.53 0.2691377091000000
  594.57 0.2702785003000000
  594.60 0.2714202607000000
  594.64 0.2725633250000000
  594.67 0.2737080277000000
  594.71 0.2748547038000000
  594.74 0.2760036886000000
  594.78 0.2771553174000000
  594.81 0.2783099260000000
  594.85 0.2794678502000000
  594.88 0.2806294261000000
  594.92 0.2817949902000000
  594.95 0.2829648791000000
  594.99 0.2841394297000000
  595.03 0.2853166961000000
  595.06 0.2864910261000000
  595.10 0.2876626878000000
  595.13 0.2888322892000000
  595.17 0.2900004388000000
  595.20 0.2911677454000000
  595.24 0.2923348186000000
  595.27 0.2935022679000000
  595.31 0.2946707038000000
  595.34 0.2958407367000000
  595.38 0.2970129779000000
  595.42 0.2981880389000000
  595.45 0.2993665316000000
  595.49 0.3005490684000000
  595.52 0.3017362622000000
  595.56 0.3029287263000000
  595.59 0.3041270743000000
  595.63 0.3053319205000000
  595.66 0.3065438794000000
  595.70 0.3077635661000000
  595.73 0.3089915961000000
  595.77 0.3102285851000000
  595.81 0.3114751497000000
  595.84 0.3127319066000000
  595.88 0.3139994731000000
  595.91 0.3152784667000000
  595.95 0.3165695056000000
  595.98 0.3178732084000000
  596.02 0.3191892555000000
  596.05 0.3205129975000000
  596.09 0.3218439411000000
  596.13 0.3231823575000000
  596.16 0.3245285183000000
  596.20 0.3258826950000000
  596.23 0.3272451597000000
  596.27 0.3286161842000000
  596.30 0.3299960409000000
  596.34 0.3313850022000000
  596.37 0.3327833407000000
  596.41 0.3341913293000000
  596.45 0.3356092411000000
  596.48 0.3370373491000000
  596.52 0.3384759269000000
  596.55 0.3399252480000000
  596.59 0.3413855863000000
  596.62 0.3428572157000000
  596.66 0.3443404105000000
  596.69 0.3458354450000000
  596.73 0.3473425937000000
  596.77 0.3488621316000000
  596.80 0.3503943336000000
  596.84 0.3519394747000000
  596.87 0.3534978305000000
  596.91 0.3550696764000000
  596.94 0.3566552882000000
  596.98 0.3582549419000000
  597.01 0.3598699105000000
  597.05 0.3615084352000000
  597.09 0.3631713404000000
  597.12 0.3648574474000000
  597.16 0.3665655765000000
  597.19 0.3682945473000000
  597.23 0.3700431784000000
  597.26 0.3718102876000000
  597.30 0.3735946919000000
  597.34 0.3753952074000000
  597.37 0.3772106495000000
  597.41 0.3790398324000000
  597.44 0.3808815697000000
  597.48 0.3827346743000000
  597.51 0.3845979578000000
  597.55 0.3864702314000000
  597.59 0.3883503051000000
  597.62 0.3902369883000000
  597.66 0.3921290895000000
  597.69 0.3940254161000000
  597.73 0.3959247749000000
  597.76 0.3978259718000000
  597.80 0.3997278118000000
  597.84 0.4016290990000000
  597.87 0.4035286369000000
  597.91 0.4054252277000000
  597.94 0.4073176731000000
  597.98 0.4092047737000000
  598.01 0.4110865345000000
  598.05 0.4129727801000000
  598.09 0.4148656789000000
  598.12 0.4167649144000000
  598.16 0.4186701701000000
  598.19 0.4205811291000000
  598.23 0.4224974742000000
  598.27 0.4244188882000000
  598.30 0.4263450536000000
  598.34 0.4282756525000000
  598.37 0.4302103669000000
  598.41 0.4321488787000000
  598.44 0.4340908693000000
  598.48 0.4360360202000000
  598.52 0.4379840122000000
  598.55 0.4399345264000000
  598.59 0.4418872433000000
  598.62 0.4438418434000000
  598.66 0.4457980067000000
  598.69 0.4477554133000000
  598.73 0.4497137427000000
  598.77 0.4516726746000000
  598.80 0.4536318882000000
  598.84 0.4555910623000000
  598.87 0.4575498760000000
  598.91 0.4595080076000000
  598.95 0.4614651355000000
  598.98 0.4634209378000000
  599.02 0.4653741107000000
  599.05 0.4673187932000000
  599.09 0.4692550867000000
  599.13 0.4711842167000000
  599.16 0.4731074098000000
  599.20 0.4750258933000000
  599.23 0.4769408954000000
  599.27 0.4788536451000000
  599.30 0.4807653726000000
  599.34 0.4826773087000000
  599.38 0.4845906851000000
  599.41 0.4865067345000000
  599.45 0.4884266905000000
  599.48 0.4903517874000000
  599.52 0.4922832606000000
  599.56 0.4942223463000000
  599.59 0.4961702815000000
  599.63 0.4981283043000000
  599.66 0.5000976534000000
  599.70 0.5020795688000000
  599.74 0.5040752910000000
  599.77 0.5060860615000000
  599.81 0.5081131228000000
  599.84 0.5101577183000000
  599.88 0.5122210921000000
  599.92 0.5143044892999999
  599.95 0.5164091560000000
  599.99 0.5185363390000000
  600.02 0.5206861820000001
  600.06 0.5228555443000000
  600.10 0.5250437018000000
  600.13 0.5272501736000000
  600.17 0.5294744789000000
  600.20 0.5317161363000000
  600.24 0.5339746641000001
  600.28 0.5362495804000000
  600.31 0.5385404027000000
  600.35 0.5408466484000000
  600.38 0.5431678343000000
  600.42 0.5455034770000000
  600.46 0.5478530927000000
  600.49 0.5502161974000001
  600.53 0.5525923065000000
  600.56 0.5549809353000000
  600.60 0.5573815984000000
  600.64 0.5597938105000000
  600.67 0.5622170857000000
  600.71 0.5646509376000000
  600.74 0.5670948797000001
  600.78 0.5695484251000000
  600.82 0.5720110865000000
  600.85 0.5744823763000000
  600.89 0.5769618064000001
  600.93 0.5794488885000000
  600.96 0.5819431339000000
  601.00 0.5844440534999999
  601.03 0.5869574559000000
  601.07 0.5894906523000000
  601.11 0.5920427418999999
  601.14 0.5946127925000000
  601.18 0.5971998713000000
  601.21 0.5998030449000000
  601.25 0.6024213791000000
  601.29 0.6050539390000000
  601.32 0.6076997892000000
  601.36 0.6103579934000000
  601.40 0.6130276147000000
  601.43 0.6157077156000000
  601.47 0.6183973580000000
  601.50 0.6210956028000000
  601.54 0.6238015104000000
  601.58 0.6265141407000000
  601.61 0.6292325527000000
  601.65 0.6319558048000000
  601.68 0.6346829545000000
  601.72 0.6374130591000000
  601.76 0.6401451747000000
  601.79 0.6428783571000000
  601.83 0.6456116612000000
  601.87 0.6483441413000000
  601.90 0.6510748508999999
  601.94 0.6538028431000000
  601.97 0.6565271700000000
  602.01 0.6592475205000000
  602.05 0.6619733610000000
  602.08 0.6647076597000000
  602.12 0.6674497962000000
  602.16 0.6701991496000000
  602.19 0.6729550986000000
  602.23 0.6757170214000000
  602.26 0.6784842958000000
  602.30 0.6812562991000000
  602.34 0.6840324081000000
  602.37 0.6868119994000000
  602.41 0.6895944489000000
  602.45 0.6923791321000000
  602.48 0.6951654240000000
  602.52 0.6979526993000000
  602.55 0.7007403322000000
  602.59 0.7035276963000000
  602.63 0.7063141650000000
  602.66 0.7090991109000000
  602.70 0.7118819065999999
  602.74 0.7146619238000000
  602.77 0.7174385340000000
  602.81 0.7202111083000000
  602.85 0.7229790171000000
  602.88 0.7257416305000000
  602.92 0.7284983181000000
  602.95 0.7312484492000000
  602.99 0.7339913924000000
  603.03 0.7367403368000000
  603.06 0.7395265224000001
  603.10 0.7423467056000000
  603.14 0.7451960251000000
  603.17 0.7480696157000000
  603.21 0.7509626088000000
  603.25 0.7538701324000000
  603.28 0.7567873107999999
  603.32 0.7597092648000000
  603.35 0.7626311117000000
  603.39 0.7655479654000000
  603.43 0.7684549359000000
  603.46 0.7713471300000000
  603.50 0.7742196509000000
  603.54 0.7770675980000000
  603.57 0.7798860675000000
  603.61 0.7826701519000000
  603.65 0.7854149401000000
  603.68 0.7881155174000000
  603.72 0.7907669658000001
  603.76 0.7933643634999999
  603.79 0.7959027852000000
  603.83 0.7983773021000000
  603.86 0.8007829818000000
  603.90 0.8031148882000000
  603.94 0.8053680819000000
  603.97 0.8075376198000001
  604.01 0.8096218370000000
  604.05 0.8116713557000000
  604.08 0.8137037901000000
  604.12 0.8157176333000000
  604.16 0.8177113777000000
  604.19 0.8196835142000000
  604.23 0.8216325328000000
  604.27 0.8235569224000000
  604.30 0.8254551707000000
  604.34 0.8273257644999999
  604.38 0.8291671894000000
  604.41 0.8309779298000000
  604.45 0.8327564691000000
  604.49 0.8345012897000000
  604.52 0.8362108727000001
  604.56 0.8378836984000000
  604.59 0.8395182456000000
  604.63 0.8411129923000000
  604.67 0.8426664154000000
  604.70 0.8441769904999999
  604.74 0.8456431923000000
  604.78 0.8470634942000000
  604.81 0.8484363687000001
  604.85 0.8497602872000000
  604.89 0.8510337197000000
  604.92 0.8522551355000000
  604.96 0.8534230024000000
  605.00 0.8545357875000000
  605.03 0.8556053136000000
  605.07 0.8566491145000000
  605.11 0.8576678944000000
  605.14 0.8586622739000001
  605.18 0.8596328738000000
  605.22 0.8605803156000000
  605.25 0.8615052211999999
  605.29 0.8624082129000000
  605.33 0.8632899134000001
  605.36 0.8641509461000000
  605.40 0.8649919344000000
  605.44 0.8658135027000000
  605.47 0.8666162756000000
  605.51 0.8674008779000000
  605.55 0.8681679354000000
  605.58 0.8689180739000000
  605.62 0.8696519199000000
  605.66 0.8703701002000001
  605.69 0.8710732422000000
  605.73 0.8717619738000000
  605.77 0.8724369230000000
  605.80 0.8730987188000000
  605.84 0.8737479901000000
  605.88 0.8743853668000000
  605.91 0.8750114788000000
  605.95 0.8756269568000000
  605.99 0.8762324316000000
  606.02 0.8768287269000000
  606.06 0.8774168098000000
  606.10 0.8779966654000000
  606.13 0.8785682083000000
  606.17 0.8791313532000000
  606.21 0.8796860149000000
  606.24 0.8802321078000001
  606.28 0.8807695464000000
  606.32 0.8812982452000000
  606.35 0.8818181186000000
  606.39 0.8823290808000001
  606.43 0.8828310461000000
  606.46 0.8833239287000000
  606.50 0.8838076428000000
  606.54 0.8842821023000000
  606.58 0.8847472214000000
  606.61 0.8852029140000000
  606.65 0.8856490939000000
  606.69 0.8860856750000000
  606.72 0.8865125710000000
  606.76 0.8869296956000000
  606.80 0.8873369625999999
  606.83 0.8877342853000000
  606.87 0.8881215775000000
  606.91 0.8884987525000000
  606.94 0.8888657237000001
  606.98 0.8892224044000000
  607.02 0.8895692983000000
  607.05 0.8899104248000000
  607.09 0.8902465079000000
  607.13 0.8905774892000000
  607.16 0.8909033097000000
  607.20 0.8912239109000000
  607.24 0.8915392339000000
  607.28 0.8918492200000000
  607.31 0.8921538102000000
  607.35 0.8924529456000000
  607.39 0.8927465673000000
  607.42 0.8930346163000000
  607.46 0.8933170336000000
  607.50 0.8935937601000000
  607.53 0.8938647367000000
  607.57 0.8941299042000000
  607.61 0.8943892034000001
  607.64 0.8946425750000000
  607.68 0.8948899599000000
  607.72 0.8951312986000000
  607.75 0.8953665317000000
  607.79 0.8955955999000000
  607.83 0.8958184438000000
  607.87 0.8960350037000000
  607.90 0.8962452202000000
  607.94 0.8964490335999999
  607.98 0.8966463845000000
  608.01 0.8968372395000000
  608.05 0.8970219477000000
  608.09 0.8972008901000000
  608.12 0.8973743960000000
  608.16 0.8975427946000000
  608.20 0.8977064156000000
  608.24 0.8978655887000000
  608.27 0.8980206441000000
  608.31 0.8981719121000000
  608.35 0.8983197233000000
  608.38 0.8984644083000000
  608.42 0.8986062983999999
  608.46 0.8987457247000000
  608.49 0.8988830188000000
  608.53 0.8990185125000000
  608.57 0.8991525377000000
  608.61 0.8992854268000000
  608.64 0.8994175122000000
  608.68 0.8995491267000000
  608.72 0.8996806032000000
  608.75 0.8998122750000001
  608.79 0.8999444756000000
  608.83 0.9000775385999999
  608.87 0.9002117981000000
  608.90 0.9003475882000000
  608.94 0.9004852433000000
  608.98 0.9006250983000000
  609.01 0.9007671135999999
  609.05 0.9009074233000000
  609.09 0.9010451634000000
  609.12 0.9011806382999999
  609.16 0.9013141527000000
  609.20 0.9014460114000000
  609.24 0.9015765195000000
  609.27 0.9017059822000000
  609.31 0.9018347051000000
  609.35 0.9019629938000000
  609.38 0.9020911545000000
  609.42 0.9022194931000000
  609.46 0.9023483162000000
  609.50 0.9024779303000000
  609.53 0.9026086424000000
  609.57 0.9027407594000000
  609.61 0.9028745888000000
  609.64 0.9030104380000000
  609.68 0.9031486148000000
  609.72 0.9032894271000000
  609.76 0.9034331832000000
  609.79 0.9035801914000000
  609.83 0.9037307605000000
  609.87 0.9038851993000000
  609.90 0.9040438169000000
  609.94 0.9042069227000000
  609.98 0.9043748262000000
  610.02 0.9045476942000000
  610.05 0.9047246493000000
  610.09 0.9049055076000000
  610.13 0.9050902973000000
  610.17 0.9052790464000000
  610.20 0.9054717832000000
  610.24 0.9056685359000000
  610.28 0.9058693327000000
  610.31 0.9060742018000000
  610.35 0.9062831715000000
  610.39 0.9064962701000000
  610.43 0.9067135260000000
  610.46 0.9069349673000000
  610.50 0.9071606225000000
  610.54 0.9073905199000000
  610.58 0.9076246880000000
  610.61 0.9078631551000000
  610.65 0.9081059496000000
  610.69 0.9083531000000000
  610.72 0.9086046348000000
  610.76 0.9088605825000000
  610.80 0.9091209715000000
  610.84 0.9093858304000000
  610.87 0.9096551877000000
  610.91 0.9099290719999999
  610.95 0.9102075119000000
  610.99 0.9104905360000000
  611.02 0.9107796486000000
  611.06 0.9110804204000000
  611.10 0.9113928730000000
  611.13 0.9117164190000000
  611.17 0.9120504711000000
  611.21 0.9123944412000000
  611.25 0.9127477410000000
  611.28 0.9131097816000000
  611.32 0.9134799738000000
  611.36 0.9138577279000000
  611.40 0.9142424537000000
  611.43 0.9146335608000000
  611.47 0.9150304580000000
  611.51 0.9154325540000000
  611.55 0.9158392569000000
  611.58 0.9162499744000000
  611.62 0.9166641137000000
  611.66 0.9170810818000000
  611.70 0.9175002850000000
  611.73 0.9179211292000000
  611.77 0.9183430200000000
  611.81 0.9187653624000000
  611.85 0.9191875612000000
  611.88 0.9196090205000000
  611.92 0.9200291440000000
  611.96 0.9204473352000000
  612.00 0.9208629969000000
  612.03 0.9212800566000000
  612.07 0.9217051974000000
  612.11 0.9221378069000000
  612.14 0.9225771695000000
  612.18 0.9230225690000000
  612.22 0.9234732888000000
  612.26 0.9239286115000001
  612.29 0.9243878196000000
  612.33 0.9248501947000000
  612.37 0.9253150180000000
  612.41 0.9257815703000000
  612.44 0.9262491315000000
  612.48 0.9267169815000000
  612.52 0.9271843992000000
  612.56 0.9276506632000000
  612.59 0.9281150516000000
  612.63 0.9285768418000000
  612.67 0.9290353108000000
  612.71 0.9294897351000000
  612.75 0.9299393905000000
  612.78 0.9303835524000000
  612.82 0.9308214956999999
  612.86 0.9312524947000000
  612.90 0.9316758231000000
  612.93 0.9320907541000000
  612.97 0.9324965606000000
  613.01 0.9328928136000000
  613.05 0.9332875493000000
  613.08 0.9336841550000000
  613.12 0.9340819782000001
  613.16 0.9344803663000000
  613.20 0.9348786658000000
  613.23 0.9352762229000000
  613.27 0.9356723834000000
  613.31 0.9360664923999999
  613.35 0.9364578949000000
  613.38 0.9368459349000000
  613.42 0.9372299562999999
  613.46 0.9376093024000000
  613.50 0.9379833160000000
  613.53 0.9383513395000000
  613.57 0.9387127147000000
  613.61 0.9390667830000000
  613.65 0.9394128853000000
  613.69 0.9397503620000000
  613.72 0.9400785529000000
  613.76 0.9403967975999999
  613.80 0.9407044349000000
  613.84 0.9410008034000000
  613.87 0.9412852410000000
  613.91 0.9415570852000000
  613.95 0.9418156730000000
  613.99 0.9420603410000000
  614.02 0.9422943691000000
  614.06 0.9425307775000000
  614.10 0.9427697930000000
  614.14 0.9430104402000000
  614.18 0.9432517428000000
  614.21 0.9434927239000001
  614.25 0.9437324057000001
  614.29 0.9439698099000000
  614.33 0.9442039573000000
  614.36 0.9444338681000000
  614.40 0.9446585617000000
  614.44 0.9448770567000000
  614.48 0.9450883713000000
  614.51 0.9452915226000000
  614.55 0.9454855272000000
  614.59 0.9456694009000000
  614.63 0.9458421588000000
  614.67 0.9460028152000000
  614.70 0.9461503838000000
  614.74 0.9462838774000000
  614.78 0.9464023083999999
  614.82 0.9465046880000000
  614.85 0.9465900271000000
  614.89 0.9466573357000000
  614.93 0.9467056229000000
  614.97 0.9467338975000000
  615.01 0.9467414337000000
  615.04 0.9467402991000000
  615.08 0.9467374787000000
  615.12 0.9467330073000000
  615.16 0.9467269196000000
  615.20 0.9467192504000000
  615.23 0.9467100345000000
  615.27 0.9466993066000000
  615.31 0.9466871017000000
  615.35 0.9466734545000000
  615.38 0.9466583999000000
  615.42 0.9466419730000000
  615.46 0.9466242086000000
  615.50 0.9466051416000000
  615.54 0.9465848072000000
  615.57 0.9465632402000000
  615.61 0.9465404758000000
  615.65 0.9465165490000000
  615.69 0.9464914950000000
  615.73 0.9464653487000000
  615.76 0.9464381455000000
  615.80 0.9464099204999999
  615.84 0.9463807088000000
  615.88 0.9463505457000000
  615.92 0.9463194665000000
  615.95 0.9462875064000000
  615.99 0.9462547008000000
  616.03 0.9462163074000000
  616.07 0.9461617795000000
  616.10 0.9460916046000000
  616.14 0.9460067237999999
  616.18 0.9459080788000001
  616.22 0.9457966122000000
  616.26 0.9456732671000000
  616.29 0.9455389875000000
  616.33 0.9453947179000000
  616.37 0.9452414036000000
  616.41 0.9450799906000000
  616.45 0.9449114256000000
  616.48 0.9447366560000000
  616.52 0.9445566299000000
  616.56 0.9443722961000000
  616.60 0.9441846040000000
  616.64 0.9439945038999999
  616.67 0.9438029468000000
  616.71 0.9436108841000000
  616.75 0.9434192682000000
  616.79 0.9432290522000000
  616.83 0.9430411898000000
  616.87 0.9428566353000000
  616.90 0.9426763440000000
  616.94 0.9425012716000000
  616.98 0.9423323748000000
  617.02 0.9421687315000000
  617.06 0.9419977968000000
  617.09 0.9418179803000000
  617.13 0.9416303866000000
  617.17 0.9414361213000000
  617.21 0.9412362904000000
  617.25 0.9410320012000000
  617.28 0.9408243613000000
  617.32 0.9406144796000000
  617.36 0.9404034655000000
  617.40 0.9401924295000000
  617.44 0.9399824825999999
  617.47 0.9397747368000000
  617.51 0.9395703050000001
  617.55 0.9393703007999999
  617.59 0.9391758387000000
  617.63 0.9389880339000000
  617.67 0.9388080025000000
  617.70 0.9386368616000000
  617.74 0.9384757288000000
  617.78 0.9383257227000000
  617.82 0.9381879628000001
  617.86 0.9380635694000000
  617.89 0.9379536634000000
  617.93 0.9378593669000000
  617.97 0.9377818025000000
  618.01 0.9377216212000000
  618.05 0.9376675676000000
  618.09 0.9376145245000000
  618.12 0.9375625829000001
  618.16 0.9375118339000000
  618.20 0.9374623685000000
  618.24 0.9374142780000000
  618.28 0.9373676535000000
  618.31 0.9373225864000000
  618.35 0.9372791680000000
  618.39 0.9372374899000000
  618.43 0.9371976434000000
  618.47 0.9371597202000000
  618.51 0.9371238119000000
  618.54 0.9370900103000001
  618.58 0.9370584071000000
  618.62 0.9370290941000000
  618.66 0.9370021633000000
  618.70 0.9369777067000000
  618.74 0.9369558162000000
  618.77 0.9369365841000000
  618.81 0.9369201025000000
  618.85 0.9369064637000000
  618.89 0.9368957600000000
  618.93 0.9368880838000000
  618.97 0.9368835275000000
  619.00 0.9368822716000000
  619.04 0.9368970888000000
  619.08 0.9369362287000000
  619.12 0.9369985295000000
  619.16 0.9370828285000000
  619.20 0.9371879621000000
  619.23 0.9373127661000000
  619.27 0.9374560752000000
  619.31 0.9376167231000000
  619.35 0.9377935430000000
  619.39 0.9379853669000000
  619.43 0.9381910261999999
  619.46 0.9384093511000000
  619.50 0.9386391713000000
  619.54 0.9388793155000000
  619.58 0.9391286112000000
  619.62 0.9393858856000000
  619.66 0.9396499645000000
  619.69 0.9399196733000000
  619.73 0.9401938359999999
  619.77 0.9404712762000000
  619.81 0.9407508164000000
  619.85 0.9410312782000000
  619.89 0.9413114825000000
  619.92 0.9415902491000000
  619.96 0.9418663970000000
  620.00 0.9421387577000000
  620.04 0.9424198106000000
  620.08 0.9427204368000000
  620.12 0.9430394835000000
  620.16 0.9433757972000000
  620.19 0.9437282236000000
  620.23 0.9440956072000000
  620.27 0.9444767919000000
  620.31 0.9448706207999999
  620.35 0.9452759360000000
  620.39 0.9456915787000000
  620.42 0.9461163893000000
  620.46 0.9465492073000000
  620.50 0.9469888715000000
  620.54 0.9474342196000000
  620.58 0.9478840885000001
  620.62 0.9483373144000000
  620.66 0.9487927323000001
  620.69 0.9492491768000000
  620.73 0.9497054811000000
  620.77 0.9501604780000000
  620.81 0.9506129991000000
  620.85 0.9510618753000000
  620.89 0.9515059366000000
  620.93 0.9519440120000000
  620.96 0.9523749298999999
  621.00 0.9527975525000000
  621.04 0.9532216611000000
  621.08 0.9536548457000000
  621.12 0.9540960062000000
  621.16 0.9545440411000000
  621.20 0.9549978486000000
  621.23 0.9554563258000000
  621.27 0.9559183690000000
  621.31 0.9563828736000000
  621.35 0.9568487344000000
  621.39 0.9573148453000000
  621.43 0.9577800992000000
  621.47 0.9582433884000000
  621.50 0.9587036042000000
  621.54 0.9591596372000000
  621.58 0.9596103771000000
  621.62 0.9600547129000000
  621.66 0.9604915325000000
  621.70 0.9609197232000000
  621.74 0.9613381715000000
  621.77 0.9617457628000000
  621.81 0.9621413820000000
  621.85 0.9625239130000000
  621.89 0.9628922389000000
  621.93 0.9632452418000000
  621.97 0.9635818033000000
  622.01 0.9639012003000000
  622.05 0.9642197076000000
  622.08 0.9645451596000000
  622.12 0.9648759399000000
  622.16 0.9652104310000000
  622.20 0.9655470140000000
  622.24 0.9658840690000000
  622.28 0.9662199747000000
  622.32 0.9665531088000000
  622.35 0.9668818474999999
  622.39 0.9672045660000000
  622.43 0.9675196382000000
  622.47 0.9678254369000000
  622.51 0.9681203336000000
  622.55 0.9684026985000000
  622.59 0.9686709008000000
  622.63 0.9689233083000000
  622.67 0.9691582876000000
  622.70 0.9693742041000000
  622.74 0.9695694221000000
  622.78 0.9697423046000000
  622.82 0.9698912132000000
  622.86 0.9700145086000000
  622.90 0.9701105501000000
  622.94 0.9701776957000000
  622.98 0.9702143023000001
  623.01 0.9702207432000000
  623.05 0.9702181390000000
  623.09 0.9702125747000000
  623.13 0.9702041098999999
  623.17 0.9701928046000000
  623.21 0.9701787184000000
  623.25 0.9701619114000000
  623.29 0.9701424432000000
  623.32 0.9701203740000000
  623.36 0.9700957636999999
  623.40 0.9700686724000001
  623.44 0.9700391601000000
  623.48 0.9700072869000000
  623.52 0.9699731132000000
  623.56 0.9699366989000000
  623.60 0.9698981046000000
  623.64 0.9698573903000000
  623.67 0.9698146166000000
  623.71 0.9697698438000000
  623.75 0.9697231323000000
  623.79 0.9696745428000000
  623.83 0.9696241356000000
  623.87 0.9695719714000000
  623.91 0.9695181108000001
  623.95 0.9694626145000000
  623.99 0.9694055432000001
  624.02 0.9693410722000000
  624.06 0.9692489987000000
  624.10 0.9691289594000000
  624.14 0.9689824691000000
  624.18 0.9688110435000000
  624.22 0.9686161996000000
  624.26 0.9683994556000000
  624.30 0.9681623306000000
  624.34 0.9679063451000000
  624.38 0.9676330205000000
  624.41 0.9673438797000000
  624.45 0.9670404463000000
  624.49 0.9667242453000000
  624.53 0.9663968029000000
  624.57 0.9660596462000000
  624.61 0.9657143038000000
  624.65 0.9653623050000000
  624.69 0.9650051807000000
  624.73 0.9646444627000000
  624.77 0.9642816839000000
  624.80 0.9639183785000000
  624.84 0.9635560818000000
  624.88 0.9631963302000000
  624.92 0.9628406613000000
  624.96 0.9624906138000000
  625.00 0.9621477278000000
  625.04 0.9618021536000000
  625.08 0.9614435780000000
  625.12 0.9610728466000000
  625.16 0.9606908055000000
  625.20 0.9602983014000001
  625.23 0.9598961820000000
  625.27 0.9594852951000000
  625.31 0.9590664895000000
  625.35 0.9586406146999999
  625.39 0.9582085205000000
  625.43 0.9577710576000000
  625.47 0.9573290773000001
  625.51 0.9568834314000000
  625.55 0.9564349726000000
  625.59 0.9559845540000000
  625.63 0.9555330295000000
  625.66 0.9550812534000001
  625.70 0.9546300810000000
  625.74 0.9541803679999999
  625.78 0.9537329708000000
  625.82 0.9532887463000000
  625.86 0.9528485524000000
  625.90 0.9524132473000000
  625.94 0.9519836900999999
  625.98 0.9515607402000000
  626.02 0.9511436193000000
  626.06 0.9507206915000000
  626.10 0.9502904309000000
  626.13 0.9498539609000000
  626.17 0.9494124062000000
  626.21 0.9489668921000000
  626.25 0.9485185448000000
  626.29 0.9480684914000000
  626.33 0.9476178597000000
  626.37 0.9471677785000000
  626.41 0.9467193773000000
  626.45 0.9462737867000000
  626.49 0.9458321379000000
  626.53 0.9453955630999999
  626.57 0.9449651952000000
  626.61 0.9445421681000000
  626.64 0.9441276165000000
  626.68 0.9437226759000000
  626.72 0.9433284828000000
  626.76 0.9429461743000001
  626.80 0.9425768887000000
  626.84 0.9422217648000000
  626.88 0.9418819425000000
  626.92 0.9415585625000000
  626.96 0.9412527663000000
  627.00 0.9409656962000000
  627.04 0.9406865429000000
  627.08 0.9404027695000000
  627.12 0.9401156744000000
  627.16 0.9398265741000000
  627.20 0.9395367863000000
  627.23 0.9392476298000000
  627.27 0.9389604240000000
  627.31 0.9386764898000000
  627.35 0.9383971487000000
  627.39 0.9381237233000000
  627.43 0.9378575372000000
  627.47 0.9375999151000000
  627.51 0.9373521827000000
  627.55 0.9371156664000000
  627.59 0.9368916939000000
  627.63 0.9366815939000001
  627.67 0.9364866958000000
  627.71 0.9363083304000001
  627.75 0.9361478293000000
  627.79 0.9360065249000000
  627.83 0.9358857511000001
  627.86 0.9357868423000000
  627.90 0.9357111341000000
  627.94 0.9356599633000000
  627.98 0.9356346674000000
  628.02 0.9356353913000000
  628.06 0.9356570474000000
  628.10 0.9356981757000000
  628.14 0.9357579445999999
  628.18 0.9358355218000000
  628.22 0.9359300742000000
  628.26 0.9360407683999999
  628.30 0.9361667703000000
  628.34 0.9363072448000000
  628.38 0.9364613567000000
  628.42 0.9366282698000000
  628.46 0.9368071475000000
  628.50 0.9369971523000000
  628.54 0.9371974463000000
  628.58 0.9374071909000000
  628.61 0.9376255468000000
  628.65 0.9378516741000000
  628.69 0.9380847324000000
  628.73 0.9383238805000000
  628.77 0.9385682766000000
  628.81 0.9388170782000000
  628.85 0.9390694423000000
  628.89 0.9393245252000000
  628.93 0.9395814826000000
  628.97 0.9398394696000000
  629.01 0.9400987562000001
  629.05 0.9403825649000001
  629.09 0.9406990293000000
  629.13 0.9410462695000000
  629.17 0.9414224037000000
  629.21 0.9418255491999999
  629.25 0.9422538215000000
  629.29 0.9427053347000000
  629.33 0.9431782018000000
  629.37 0.9436705339000000
  629.41 0.9441804410000000
  629.45 0.9447060316000000
  629.49 0.9452454127000000
  629.52 0.9457966900000000
  629.56 0.9463579675000000
  629.60 0.9469273481000000
  629.64 0.9475029331000000
  629.68 0.9480828223000000
  629.72 0.9486651142000000
  629.76 0.9492479056999999
  629.80 0.9498292925000000
  629.84 0.9504073686000000
  629.88 0.9509802268000001
  629.92 0.9515459582000000
  629.96 0.9521026526000000
  630.00 0.9526484021000000
  630.04 0.9531960321000000
  630.08 0.9537578154000000
  630.12 0.9543323460000001
  630.16 0.9549182170000000
  630.20 0.9555140203000000
  630.24 0.9561183468000000
  630.28 0.9567297863999999
  630.32 0.9573469279000000
  630.36 0.9579683589000000
  630.40 0.9585926660000000
  630.44 0.9592184348000000
  630.48 0.9598442498999999
  630.52 0.9604686945000001
  630.56 0.9610903511000000
  630.60 0.9617078010000000
  630.64 0.9623196243000000
  630.68 0.9629244001000000
  630.72 0.9635207066000000
  630.76 0.9641071206000000
  630.80 0.9646822181000000
  630.84 0.9652445739000000
  630.88 0.9657927616999999
  630.91 0.9663253543000000
  630.95 0.9668409231000000
  630.99 0.9673380388000000
  631.03 0.9678263794999999
  631.07 0.9683228580000000
  631.11 0.9688258873000000
  631.15 0.9693335864000000
  631.19 0.9698440723000000
  631.23 0.9703554610000000
  631.27 0.9708658668000000
  631.31 0.9713734026000000
  631.35 0.9718761801000000
  631.39 0.9723723093000000
  631.43 0.9728598990000000
  631.47 0.9733370562000000
  631.51 0.9738018870000000
  631.55 0.9742524956000000
  631.59 0.9746869849000001
  631.63 0.9751034566000000
  631.67 0.9755000105000000
  631.71 0.9758747455000000
  631.75 0.9762257586999999
  631.79 0.9765511458000000
  631.83 0.9768490010999999
  631.87 0.9771174175000000
  631.91 0.9773544865000000
  631.95 0.9775582980000000
  631.99 0.9777269405000000
  632.03 0.9778695261000000
  632.07 0.9780089515000000
  632.11 0.9781457484000000
  632.15 0.9782796320000000
  632.19 0.9784103173000001
  632.23 0.9785375190000000
  632.27 0.9786609517000000
  632.31 0.9787803297000000
  632.35 0.9788953671000000
  632.39 0.9790057778000000
  632.43 0.9791112755000000
  632.47 0.9792115736000000
  632.51 0.9793063854000000
  632.55 0.9793954239000000
  632.59 0.9794784019000000
  632.63 0.9795550320999999
  632.67 0.9796250267000000
  632.71 0.9796880980000000
  632.75 0.9797439579000000
  632.79 0.9797923181000000
  632.83 0.9798328900000000
  632.87 0.9798653851000000
  632.91 0.9798895144000001
  632.95 0.9799049886000000
  632.99 0.9799115185000000
  633.03 0.9799017879000000
  633.07 0.9798615174999999
  633.11 0.9797919441000000
  633.15 0.9796948275000000
  633.19 0.9795719293000000
  633.23 0.9794250121000000
  633.27 0.9792558400000000
  633.31 0.9790661783000000
  633.35 0.9788577938000000
  633.39 0.9786324546000000
  633.43 0.9783919301000000
  633.47 0.9781379912000000
  633.51 0.9778724098000000
  633.55 0.9775969596000000
  633.59 0.9773134153000000
  633.63 0.9770235531000000
  633.67 0.9767291506000000
  633.71 0.9764319866000000
  633.75 0.9761338414000000
  633.79 0.9758364965000000
  633.83 0.9755417350000000
  633.87 0.9752513411000000
  633.91 0.9749671004000000
  633.95 0.9746908001000000
  633.99 0.9744242284000000
  634.03 0.9741576823000000
  634.08 0.9738743312000000
  634.12 0.9735756343999999
  634.16 0.9732633061000000
  634.20 0.9729390617000000
  634.24 0.9726046181000000
  634.28 0.9722616934000000
  634.32 0.9719120068000000
  634.36 0.9715572792000000
  634.40 0.9711992326000000
  634.44 0.9708395902000000
  634.48 0.9704800766000000
  634.52 0.9701224180000000
  634.56 0.9697683414000000
  634.60 0.9694195755000000
  634.64 0.9690778503000000
  634.68 0.9687448968000000
  634.72 0.9684224477000000
  634.76 0.9681122367000000
  634.80 0.9678159991000000
  634.84 0.9675354712999999
  634.88 0.9672723912000000
  634.92 0.9670284979000000
  634.96 0.9668055318000000
  635.00 0.9666052214999999
  635.04 0.9664150091000000
  635.08 0.9662233446000000
  635.12 0.9660310244000000
  635.16 0.9658388457000000
  635.20 0.9656476062000000
  635.24 0.9654581043000000
  635.28 0.9652711389000000
  635.32 0.9650875097000000
  635.36 0.9649080167000000
  635.40 0.9647334609000000
  635.45 0.9645646436000000
  635.49 0.9644023668000000
  635.53 0.9642474331999999
  635.57 0.9641006459000000
  635.61 0.9639628089000000
  635.65 0.9638347266000000
  635.69 0.9637172040000000
  635.73 0.9636110469000000
  635.77 0.9635170615000000
  635.81 0.9634360547000000
  635.85 0.9633688342000000
  635.89 0.9633162080000000
  635.93 0.9632789848000000
  635.97 0.9632579741000000
  636.01 0.9632541387000000
  636.05 0.9632707371000000
  636.09 0.9633081116000000
  636.13 0.9633653379000000
  636.17 0.9634414909000000
  636.21 0.9635356447000000
  636.25 0.9636468729000000
  636.29 0.9637742482000000
  636.33 0.9639168427000000
  636.38 0.9640737277000000
  636.42 0.9642439739000001
  636.46 0.9644266511000000
  636.50 0.9646208287000000
  636.54 0.9648255750000000
  636.58 0.9650399579000000
  636.62 0.9652630445000000
  636.66 0.9654939011000000
  636.70 0.9657315933000000
  636.74 0.9659751861000000
  636.78 0.9662237436000000
  636.82 0.9664763295000000
  636.86 0.9667320064000000
  636.90 0.9669898364000000
  636.94 0.9672488809000001
  636.98 0.9675082005000000
  637.02 0.9677731593000000
  637.06 0.9680694675000000
  637.10 0.9683981369000000
  637.15 0.9687570261000000
  637.19 0.9691439921000000
  637.23 0.9695568903000000
  637.27 0.9699935742000000
  637.31 0.9704518961000000
  637.35 0.9709297062000000
  637.39 0.9714248534000000
  637.43 0.9719351848000000
  637.47 0.9724585458000000
  637.51 0.9729927802000000
  637.55 0.9735357301999999
  637.59 0.9740852364000000
  637.63 0.9746391374000000
  637.67 0.9751952707000000
  637.71 0.9757514716000000
  637.76 0.9763055741000000
  637.80 0.9768554104000000
  637.84 0.9773988111000000
  637.88 0.9779336050000000
  637.92 0.9784576195000000
  637.96 0.9789686801000000
  638.00 0.9794646108000000
  638.04 0.9799561977000000
  638.08 0.9804559512000000
  638.12 0.9809628068000000
  638.16 0.9814756945999999
  638.20 0.9819935436000000
  638.24 0.9825152823000000
  638.28 0.9830398382000000
  638.33 0.9835661380000000
  638.37 0.9840931075000000
  638.41 0.9846196719000000
  638.45 0.9851447553000000
  638.49 0.9856672813000000
  638.53 0.9861861723000001
  638.57 0.9867003502000000
  638.61 0.9872087358000000
  638.65 0.9877102494000000
  638.69 0.9882038102000000
  638.73 0.9886883366000000
  638.77 0.9891627463000000
  638.81 0.9896259561000000
  638.86 0.9900768820000000
  638.90 0.9905144390000000
  638.94 0.9909375416000000
  638.98 0.9913451032000000
  639.02 0.9917390084000000
  639.06 0.9921395290000000
  639.10 0.9925489404000000
  639.14 0.9929651050000000
  639.18 0.9933858835000000
  639.22 0.9938091352000000
  639.26 0.9942327175000000
  639.30 0.9946544863000000
  639.35 0.9950722958000000
  639.39 0.9954839986000000
  639.43 0.9958874455000000
  639.47 0.9962804859000000
  639.51 0.9966609673000000
  639.55 0.9970267358000000
  639.59 0.9973756356000000
  639.63 0.9977055095000000
  639.67 0.9980141984000001
  639.71 0.9982995417000000
  639.75 0.9985593771000000
  639.80 0.9987915406000000
  639.84 0.9989938667000000
  639.88 0.9991641881000000
  639.92 0.9993003357000000
  639.96 0.9994001391000000
  640.00 0.9994614260000000
  640.04 0.9995020551000000
  640.08 0.9995413148000000
  640.12 0.9995791762000000
  640.16 0.9996156103000000
  640.20 0.9996505884000000
  640.25 0.9996840813000000
  640.29 0.9997160602000000
  640.33 0.9997464959000000
  640.37 0.9997753596000000
  640.41 0.9998026221000000
  640.45 0.9998282544000000
  640.49 0.9998522273000000
  640.53 0.9998745118000000
  640.57 0.9998950787000001
  640.61 0.9999138989000000
  640.66 0.9999309432000000
  640.70 0.9999461823000000
  640.74 0.9999595871000000
  640.78 0.9999711283000000
  640.82 0.9999807767000000
  640.86 0.9999885029000000
  640.90 0.9999942776000000
  640.94 0.9999980716000000
  640.98 0.9999998553000000
  641.03 0.9999919529000000
  641.07 0.9999465890000000
  641.11 0.9998634140000000
  641.15 0.9997449152000000
  641.19 0.9995935815000000
  641.23 0.9994119042000000
  641.27 0.9992023763000000
  641.31 0.9989674925000001
  641.35 0.9987097499000001
  641.40 0.9984316471000000
  641.44 0.9981356848000000
  641.48 0.9978243657000000
  641.52 0.9975001943000000
  641.56 0.9971656771000000
  641.60 0.9968233224000000
  641.64 0.9964756408000000
  641.68 0.9961251443000000
  641.72 0.9957743473000000
  641.77 0.9954257659000000
  641.81 0.9950819182000000
  641.85 0.9947453241000001
  641.89 0.9944185058000000
  641.93 0.9941039871000000
  641.97 0.9938042938000000
  642.01 0.9935204828000000
  642.05 0.9932344552000000
  642.10 0.9929408289000000
  642.14 0.9926405021000000
  642.18 0.9923343736000000
  642.22 0.9920233429999999
  642.26 0.9917083105000000
  642.30 0.9913901772000000
  642.34 0.9910698445000000
  642.38 0.9907482149000000
  642.43 0.9904261913000000
  642.47 0.9901046775000000
  642.51 0.9897845780000000
  642.55 0.9894667977000000
  642.59 0.9891522427000000
  642.63 0.9888418192000000
  642.67 0.9885364347000000
  642.71 0.9882369969000000
  642.76 0.9879444145000000
  642.80 0.9876595968000000
  642.84 0.9873834538000000
  642.88 0.9871168962000000
  642.92 0.9868608355000000
  642.96 0.9866161837000000
  643.00 0.9863837491000000
  643.05 0.9861520906000000
  643.09 0.9859140052000001
  643.13 0.9856709276000000
  643.17 0.9854242935999999
  643.21 0.9851755402000000
  643.25 0.9849261055000000
  643.29 0.9846774286000000
  643.34 0.9844309499000000
  643.38 0.9841881106000000
  643.42 0.9839503534000000
  643.46 0.9837191219000000
  643.50 0.9834958608000000
  643.54 0.9832820160000000
  643.58 0.9830790344000000
  643.62 0.9828883642000000
  643.67 0.9827114545000000
  643.71 0.9825497556000000
  643.75 0.9824047191000000
  643.79 0.9822777974000000
  643.83 0.9821704443000000
  643.87 0.9820841145000000
  643.92 0.9820202640000000
  643.96 0.9819803498000000
  644.00 0.9819658301000000
  644.04 0.9819665143000000
  644.08 0.9819688027000000
  644.12 0.9819726392000000
  644.16 0.9819779985000000
  644.21 0.9819848557000000
  644.25 0.9819931857000000
  644.29 0.9820029632000000
  644.33 0.9820141633000000
  644.37 0.9820267608000000
  644.41 0.9820407304000000
  644.45 0.9820560471000001
  644.50 0.9820726855000000
  644.54 0.9820906205000000
  644.58 0.9821098268000000
  644.62 0.9821302790999999
  644.66 0.9821519522000000
  644.70 0.9821748208000000
  644.75 0.9821988594000000
  644.79 0.9822240429000000
  644.83 0.9822503457000000
  644.87 0.9822777426000000
  644.91 0.9823062081000000
  644.95 0.9823357167000000
  644.99 0.9823662431000000
  645.04 0.9824078344000000
  645.08 0.9824755293000000
  645.12 0.9825679479000000
  645.16 0.9826835028999999
  645.20 0.9828206057000000
  645.24 0.9829776665000000
  645.29 0.9831530943000000
  645.33 0.9833452970000000
  645.37 0.9835526810000000
  645.41 0.9837736517000000
  645.45 0.9840066131000000
  645.49 0.9842499680000000
  645.54 0.9845021180000000
  645.58 0.9847614634000000
  645.62 0.9850264034000000
  645.66 0.9852953357000001
  645.70 0.9855666571000000
  645.74 0.9858387629000001
  645.79 0.9861100472000000
  645.83 0.9863789029000000
  645.87 0.9866437216000000
  645.91 0.9869028937000000
  645.95 0.9871548084000000
  645.99 0.9873978536000000
  646.04 0.9876379660000000
  646.08 0.9878860121000000
  646.12 0.9881413967000000
  646.16 0.9884033758000000
  646.20 0.9886712044000000
  646.25 0.9889441374000000
  646.29 0.9892214286000000
  646.33 0.9895023317000000
  646.37 0.9897860996000000
  646.41 0.9900719845000000
  646.45 0.9903592382000000
  646.50 0.9906471118000000
  646.54 0.9909348560000000
  646.58 0.9912217208000000
  646.62 0.9915069555000000
  646.66 0.9917898091000000
  646.71 0.9920695297000000
  646.75 0.9923453650000000
  646.79 0.9926165622000001
  646.83 0.9928823677000000
  646.87 0.9931420274000000
  646.91 0.9933947868000000
  646.96 0.9936398904000000
  647.00 0.9938765826000000
  647.04 0.9941106024000000
  647.08 0.9943489311000000
  647.12 0.9945906286000000
  647.17 0.9948347363000000
  647.21 0.9950802949999999
  647.25 0.9953263448000000
  647.29 0.9955719249000000
  647.33 0.9958160738000000
  647.37 0.9960578293000000
  647.42 0.9962962284000000
  647.46 0.9965303074000000
  647.50 0.9967591017000000
  647.54 0.9969816463000000
  647.58 0.9971969751000000
  647.63 0.9974041214000000
  647.67 0.9976021175999999
  647.71 0.9977899957000000
  647.75 0.9979667866000000
  647.79 0.9981315206000000
  647.84 0.9982832273000000
  647.88 0.9984209353000000
  647.92 0.9985436727000000
  647.96 0.9986504667000000
  648.00 0.9987404270000000
  648.05 0.9988227554000000
  648.09 0.9989040380999999
  648.13 0.9989840502000000
  648.17 0.9990625668999999
  648.21 0.9991393629999999
  648.26 0.9992142132000000
  648.30 0.9992868921000000
  648.34 0.9993571739000000
  648.38 0.9994248328999999
  648.42 0.9994896430000000
  648.47 0.9995513780000000
  648.51 0.9996098117000000
  648.55 0.9996647175000000
  648.59 0.9997158685999999
  648.63 0.9997630383000000
  648.68 0.9998059994000000
  648.72 0.9998445247000000
  648.76 0.9998783867000000
  648.80 0.9999073580000000
  648.85 0.9999312107000000
  648.89 0.9999497170000000
  648.93 0.9999626485999999
  648.97 0.9999697773000000
  649.01 0.9999710358000000
  649.06 0.9999685565999999
  649.10 0.9999631852999999
  649.14 0.9999550722000000
  649.18 0.9999443682000000
  649.22 0.9999312238000000
  649.27 0.9999157900000000
  649.31 0.9998982178000000
  649.35 0.9998786583000000
  649.39 0.9998572628000000
  649.43 0.9998341826000000
  649.48 0.9998095691000000
  649.52 0.9997835741000000
  649.56 0.9997563490000000
  649.60 0.9997280459000000
  649.65 0.9996988166000000
  649.69 0.9996688133000000
  649.73 0.9996381880000000
  649.77 0.9996070931000000
  649.81 0.9995756810000000
  649.86 0.9995441043000000
  649.90 0.9995125156000000
  649.94 0.9994810677000000
  649.98 0.9994499134000000
  650.03 0.9994187436000000
  650.07 0.9993858680000000
  650.11 0.9993511599000000
  650.15 0.9993146705000000
  650.20 0.9992764508000000
  650.24 0.9992365523000000
  650.28 0.9991950263000000
  650.32 0.9991519240000000
  650.36 0.9991072970000000
  650.41 0.9990611966000000
  650.45 0.9990136743000000
  650.49 0.9989647817000000
  650.53 0.9989145703000000
  650.58 0.9988630916000000
  650.62 0.9988103974000000
  650.66 0.9987565394000000
  650.70 0.9987015692000000
  650.75 0.9986455385000000
  650.79 0.9985884993000000
  650.83 0.9985305034000000
  650.87 0.9984716026000000
  650.91 0.9984118488000000
  650.96 0.9983512941000000
  651.00 0.9982899904000000
  651.04 0.9982265227000000
  651.08 0.9981594968000000
  651.13 0.9980891511000000
  651.17 0.9980157244000000
  651.21 0.9979394556000000
  651.25 0.9978605841000000
  651.30 0.9977793491000000
  651.34 0.9976959904000000
  651.38 0.9976107477000000
  651.42 0.9975238609000000
  651.47 0.9974355702000000
  651.51 0.9973461160000000
  651.55 0.9972557388000000
  651.59 0.9971646794000000
  651.64 0.9970731785000000
  651.68 0.9969814774000000
  651.72 0.9968898173000000
  651.76 0.9967984397000000
  651.81 0.9967075863000000
  651.85 0.9966174989000000
  651.89 0.9965284195000000
  651.93 0.9964405904000000
  651.98 0.9963542541000000
  652.02 0.9962694025000000
  652.06 0.9961841529000000
  652.10 0.9960981596000000
  652.15 0.9960115345000000
  652.19 0.9959243900000000
  652.23 0.9958368381000000
  652.27 0.9957489912000000
  652.32 0.9956609619000000
  652.36 0.9955728625000000
  652.40 0.9954848056000000
  652.44 0.9953969041000000
  652.49 0.9953092705000000
  652.53 0.9952220179000000
  652.57 0.9951352591000000
  652.61 0.9950491073000000
  652.66 0.9949636754000000
  652.70 0.9948790768000000
  652.74 0.9947954248000000
  652.78 0.9947128326000000
  652.83 0.9946314140000000
  652.87 0.9945512823000000
  652.91 0.9944725513000000
  652.95 0.9943953346000000
  653.00 0.9943197463000000
  653.04 0.9942435450000000
  653.08 0.9941641141999999
  653.13 0.9940820107000000
  653.17 0.9939978030000000
  653.21 0.9939120602000000
  653.25 0.9938253517000000
  653.30 0.9937382474999999
  653.34 0.9936513180000000
  653.38 0.9935651339000000
  653.42 0.9934802665000000
  653.47 0.9933972876000000
  653.51 0.9933167693000000
  653.55 0.9932392842000000
  653.59 0.9931654055000000
  653.64 0.9930957064000000
  653.68 0.9930307612000000
  653.72 0.9929711441000000
  653.77 0.9929174300000000
  653.81 0.9928701942000000
  653.85 0.9928300126000000
  653.89 0.9927974612000000
  653.94 0.9927731167000000
  653.98 0.9927575563000000
  654.02 0.9927500728999999
  654.07 0.9927438970000000
  654.11 0.9927379587000000
  654.15 0.9927322615000000
  654.19 0.9927268092000000
  654.24 0.9927216054000000
  654.28 0.9927166537000000
  654.32 0.9927119579000000
  654.36 0.9927075215000000
  654.41 0.9927033483000000
  654.45 0.9926994419000000
  654.49 0.9926958059000000
  654.54 0.9926924442000000
  654.58 0.9926893602000000
  654.62 0.9926865578000000
  654.66 0.9926840406000000
  654.71 0.9926818122000000
  654.75 0.9926798764000000
  654.79 0.9926782369000000
  654.84 0.9926768973000000
  654.88 0.9926758614000000
  654.92 0.9926751328000000
  654.96 0.9926747153000000
  655.01 0.9926748148000000
  655.05 0.9926837018000000
  655.09 0.9927050957000000
  655.14 0.9927381614000000
  655.18 0.9927820629000000
  655.22 0.9928359637000000
  655.27 0.9928990264999999
  655.31 0.9929704136000000
  655.35 0.9930492864000000
  655.39 0.9931348056000000
  655.44 0.9932261315000001
  655.48 0.9933224236000000
  655.52 0.9934228406000000
  655.57 0.9935265407000000
  655.61 0.9936326814999999
  655.65 0.9937404197000000
  655.69 0.9938489116000000
  655.74 0.9939573126000000
  655.78 0.9940647776000000
  655.82 0.9941704608000000
  655.87 0.9942735157000000
  655.91 0.9943730951999999
  655.95 0.9944683513000000
  656.00 0.9945584357000000
  656.04 0.9946476825000000
  656.08 0.9947427673000000
  656.12 0.9948429665000000
  656.17 0.9949474954000000
  656.21 0.9950555688000000
  656.25 0.9951664008000000
  656.30 0.9952792048000000
  656.34 0.9953931938000000
  656.38 0.9955075799000001
  656.43 0.9956215747000000
  656.47 0.9957343894000000
  656.51 0.9958452341000000
  656.56 0.9959533188000000
  656.60 0.9960578525000000
  656.64 0.9961580437000001
  656.69 0.9962531004000000
  656.73 0.9963422297000000
  656.77 0.9964246384000000
  656.81 0.9964995324000000
  656.86 0.9965661172000000
  656.90 0.9966235973999999
  656.94 0.9966711773000000
  656.99 0.9967080603000000
  657.03 0.9967362298000000
  657.07 0.9967632999000000
  657.12 0.9967897142000000
  657.16 0.9968154178999999
  657.20 0.9968403558000000
  657.25 0.9968644729000000
  657.29 0.9968877141000000
  657.33 0.9969100241000000
  657.38 0.9969313477000000
  657.42 0.9969516297000000
  657.46 0.9969708148000000
  657.51 0.9969888475000001
  657.55 0.9970056725000001
  657.59 0.9970212344000000
  657.64 0.9970354776000000
  657.68 0.9970483467000000
  657.72 0.9970597860000000
  657.76 0.9970697400000000
  657.81 0.9970781529000000
  657.85 0.9970849692000000
  657.89 0.9970901329000000
  657.94 0.9970935884000000
  657.98 0.9970952798000000
  658.02 0.9970934314000000
  658.07 0.9970803378999999
  658.11 0.9970556276000000
  658.15 0.9970199427000001
  658.20 0.9969739258000000
  658.24 0.9969182201000000
  658.28 0.9968534694000000
  658.33 0.9967803179000000
  658.37 0.9966994102000000
  658.41 0.9966113916000000
  658.46 0.9965169079000000
  658.50 0.9964166053000000
  658.54 0.9963111306000000
  658.59 0.9962011310000000
  658.63 0.9960872544000000
  658.67 0.9959701490000000
  658.72 0.9958504636000000
  658.76 0.9957288477000000
  658.80 0.9956059509000000
  658.85 0.9954824238000000
  658.89 0.9953589171000000
  658.94 0.9952360823000000
  658.98 0.9951145712000000
  659.02 0.9949933213000000
  659.07 0.9948629919000000
  659.11 0.9947226652000000
  659.15 0.9945730498000001
  659.20 0.9944148548000000
  659.24 0.9942487902000000
  659.28 0.9940755663000000
  659.33 0.9938958939000000
  659.37 0.9937104846000000
  659.41 0.9935200504000000
  659.46 0.9933253039000000
  659.50 0.9931269583000000
  659.54 0.9929257272999999
  659.59 0.9927223253000000
  659.63 0.9925174670000000
  659.67 0.9923118681000000
  659.72 0.9921062443000001
  659.76 0.9919013124000000
  659.80 0.9916977894000000
  659.85 0.9914963931000000
  659.89 0.9912978417000000
  659.94 0.9911028540000000
  659.98 0.9909121496000000
  660.02 0.9907249250000000
  660.07 0.9905333159000000
  660.11 0.9903367519000000
  660.15 0.9901360147000000
  660.20 0.9899318866000000
  660.24 0.9897251508000000
  660.28 0.9895165908000000
  660.33 0.9893069909000000
  660.37 0.9890971361000001
  660.41 0.9888878118000000
  660.46 0.9886798041000000
  660.50 0.9884738999000000
  660.55 0.9882708864999999
  660.59 0.9880715519000000
  660.63 0.9878766847000000
  660.68 0.9876870742000000
  660.72 0.9875035103000001
  660.76 0.9873267835000000
  660.81 0.9871576849000000
  660.85 0.9869970062000000
  660.89 0.9868455399000000
  660.94 0.9867040789000000
  660.98 0.9865734169000000
  661.03 0.9864518638999999
  661.07 0.9863296793000000
  661.11 0.9862063451000000
  661.16 0.9860825098000000
  661.20 0.9859588223000000
  661.24 0.9858359322000000
  661.29 0.9857144893000001
  661.33 0.9855951442000001
  661.38 0.9854785479000000
  661.42 0.9853653518000000
  661.46 0.9852562081000000
  661.51 0.9851517693000000
  661.55 0.9850526885000001
  661.59 0.9849596193000000
  661.64 0.9848732157000000
  661.68 0.9847941324000000
  661.73 0.9847230246000001
  661.77 0.9846605479000000
  661.81 0.9846073585000000
  661.86 0.9845641131000000
  661.90 0.9845314689000000
  661.94 0.9845100838000000
  661.99 0.9845006159000000
  662.03 0.9845023268000000
  662.08 0.9845118190000000
  662.12 0.9845285502000000
  662.16 0.9845521380000000
  662.21 0.9845821997999999
  662.25 0.9846183527000000
  662.30 0.9846602133000000
  662.34 0.9847073983000000
  662.38 0.9847595237000000
  662.43 0.9848162055000000
  662.47 0.9848770591000000
  662.51 0.9849416998000000
  662.56 0.9850097425000000
  662.60 0.9850808019000000
  662.65 0.9851544923000000
  662.69 0.9852304277000000
  662.73 0.9853082219000000
  662.78 0.9853874881000000
  662.82 0.9854678395000001
  662.87 0.9855488889000000
  662.91 0.9856302488000001
  662.95 0.9857115313000000
  663.00 0.9857923483000000
  663.04 0.9858776275000000
  663.09 0.9859730330000001
  663.13 0.9860777992999999
  663.17 0.9861911491000001
  663.22 0.9863123043000001
  663.26 0.9864404863000000
  663.31 0.9865749159000000
  663.35 0.9867148132000000
  663.39 0.9868593978000000
  663.44 0.9870078885000000
  663.48 0.9871595037000001
  663.53 0.9873134609000001
  663.57 0.9874689772000000
  663.61 0.9876252690000000
  663.66 0.9877815521000000
  663.70 0.9879370416000000
  663.75 0.9880909521000000
  663.79 0.9882424974000000
  663.83 0.9883908909000000
  663.88 0.9885353452000000
  663.92 0.9886750724000000
  663.97 0.9888092837000000
  664.01 0.9889375076000000
  664.05 0.9890664635999999
  664.10 0.9891986503000000
  664.14 0.9893334294000000
  664.19 0.9894701623000000
  664.23 0.9896082098000000
  664.28 0.9897469319000000
  664.32 0.9898856885000000
  664.36 0.9900238387000000
  664.41 0.9901607412000000
  664.45 0.9902957543000001
  664.50 0.9904282357000000
  664.54 0.9905575423000000
  664.58 0.9906830310000000
  664.63 0.9908040579000000
  664.67 0.9909199786000000
  664.72 0.9910301481000000
  664.76 0.9911339212000000
  664.81 0.9912306518000000
  664.85 0.9913196936000001
  664.89 0.9914003996000000
  664.94 0.9914721223000000
  664.98 0.9915342138000000
  665.03 0.9915878509000000
  665.07 0.9916402515000000
  665.11 0.9916920750000000
  665.16 0.9917431405000000
  665.20 0.9917932670000000
  665.25 0.9918422733000000
  665.29 0.9918899781000000
  665.34 0.9919362000000000
  665.38 0.9919807574000000
  665.42 0.9920234685000000
  665.47 0.9920641515000000
  665.51 0.9921026244000000
  665.56 0.9921387049000000
  665.60 0.9921722108000000
  665.65 0.9922029596000000
  665.69 0.9922307687000000
  665.73 0.9922554554000000
  665.78 0.9922768367000000
  665.82 0.9922947297000000
  665.87 0.9923089510999999
  665.91 0.9923193176000000
  665.96 0.9923256457000000
  666.00 0.9923277485999999
  666.05 0.9923110377000000
  666.09 0.9922629056000000
  666.13 0.9921848697000000
  666.18 0.9920784488000000
  666.22 0.9919451629000000
  666.27 0.9917865331000000
  666.31 0.9916040817000000
  666.36 0.9913993324000000
  666.40 0.9911738101000001
  666.44 0.9909290407000000
  666.49 0.9906665515999999
  666.53 0.9903878712000000
  666.58 0.9900945293000000
  666.62 0.9897880568000000
  666.67 0.9894699860000000
  666.71 0.9891418501000000
  666.76 0.9888051839000001
  666.80 0.9884615232000000
  666.84 0.9881124051000000
  666.89 0.9877593680000000
  666.93 0.9874039513000000
  666.98 0.9870476959000000
  667.02 0.9866869195000000
  667.07 0.9862923091000000
  667.11 0.9858604028000000
  667.16 0.9853928129000000
  667.20 0.9848911530000000
  667.24 0.9843570377000000
  667.29 0.9837920833000000
  667.33 0.9831979072000000
  667.38 0.9825761280000000
  667.42 0.9819283659000000
  667.47 0.9812562421000000
  667.51 0.9805613792000000
  667.56 0.9798454012000000
  667.60 0.9791099334000000
  667.65 0.9783566021000000
  667.69 0.9775870354000000
  667.74 0.9768028624000000
  667.78 0.9760057134000000
  667.82 0.9751972204000000
  667.87 0.9743790163000000
  667.91 0.9735527356000000
  667.96 0.9727200139000000
  668.00 0.9718824250000000
  668.05 0.9710219694000000
  668.09 0.9701246794000000
  668.14 0.9691921855000000
  668.18 0.9682261195000000
  668.23 0.9672281145000000
  668.27 0.9661998050000000
  668.32 0.9651428268000000
  668.36 0.9640588170000000
  668.40 0.9629494139000000
  668.45 0.9618162572000000
  668.49 0.9606609882000000
  668.54 0.9594852490000000
  668.58 0.9582906833000000
  668.63 0.9570789363000000
  668.67 0.9558516542000000
  668.72 0.9546104846000000
  668.76 0.9533570766000000
  668.81 0.9520930804000000
  668.85 0.9508201477000000
  668.90 0.9495399314000000
  668.94 0.9482540858000000
  668.99 0.9469642666000000
  669.03 0.9456631358000001
  669.08 0.9443253373000000
  669.12 0.9429518594000000
  669.16 0.9415456501000000
  669.21 0.9401096597000000
  669.25 0.9386468408999999
  669.30 0.9371601489000000
  669.34 0.9356525409999999
  669.39 0.9341269770000000
  669.43 0.9325864193000000
  669.48 0.9310338323000000
  669.52 0.9294721831000000
  669.57 0.9279044410000000
  669.61 0.9263335779000000
  669.66 0.9247625677000000
  669.70 0.9231943871000000
  669.75 0.9216320150000000
  669.79 0.9200784327000000
  669.84 0.9185366239000000
  669.88 0.9170095747000000
  669.93 0.9155002737000000
  669.97 0.9140117118000000
  670.02 0.9125456719000000
  670.06 0.9110912189000000
  670.11 0.9096444513000000
  670.15 0.9082046392000001
  670.20 0.9067710521000000
  670.24 0.9053429589000000
  670.29 0.9039196278000000
  670.33 0.9025003265000000
  670.38 0.9010843222000000
  670.42 0.8996708814000000
  670.47 0.8982592700000001
  670.51 0.8968487534000000
  670.56 0.8954385963000000
  670.60 0.8940280629000000
  670.65 0.8926164167000000
  670.69 0.8912029207000000
  670.74 0.8897868373000000
  670.78 0.8883674283000000
  670.83 0.8869439549000000
  670.87 0.8855156776000001
  670.92 0.8840818565000000
  670.96 0.8826417510000000
  671.01 0.8811946604000001
  671.05 0.8797429718000001
  671.10 0.8782884895000000
  671.14 0.8768312967000000
  671.19 0.8753714768000000
  671.23 0.8739091130000000
  671.28 0.8724442889000000
  671.32 0.8709770878999999
  671.37 0.8695075937000000
  671.41 0.8680358898000000
  671.46 0.8665620601000000
  671.50 0.8650861882999999
  671.55 0.8636083582000000
  671.59 0.8621286538000000
  671.64 0.8606471590000000
  671.68 0.8591639579000000
  671.73 0.8576791347000000
  671.77 0.8561927735000000
  671.82 0.8547049586000000
  671.86 0.8532157744000000
  671.91 0.8517253051000000
  671.95 0.8502336353000000
  672.00 0.8487408496000000
  672.04 0.8472438928000000
  672.09 0.8457395796000000
  672.13 0.8442287822000000
  672.18 0.8427123818000000
  672.22 0.8411912604000000
  672.27 0.8396663005000000
  672.31 0.8381383854000000
  672.36 0.8366083993000000
  672.40 0.8350772268000000
  672.45 0.8335457534000000
  672.49 0.8320148654000000
  672.54 0.8304854495000000
  672.59 0.8289583934000000
  672.63 0.8274345854000000
  672.68 0.8259149147000000
  672.72 0.8244002708000000
  672.77 0.8228915444000000
  672.81 0.8213896265000000
  672.86 0.8198954092000000
  672.90 0.8184097851000000
  672.95 0.8169336474000000
  672.99 0.8154678904000000
  673.04 0.8140135056000000
  673.08 0.8125704651000000
  673.13 0.8111377338000000
  673.17 0.8097142638000000
  673.22 0.8082990068000000
  673.26 0.8068909131999999
  673.31 0.8054889329000000
  673.36 0.8040920147000000
  673.40 0.8026991067000000
  673.45 0.8013091560000000
  673.49 0.7999211091000000
  673.54 0.7985339115000000
  673.58 0.7971465077000000
  673.63 0.7957578416000000
  673.67 0.7943668561000000
  673.72 0.7929724934000000
  673.76 0.7915736945000000
  673.81 0.7901693999000000
  673.85 0.7887585492000000
  673.90 0.7873400809000000
  673.95 0.7859129329000000
  673.99 0.7844760422000000
  674.04 0.7830330369000000
  674.08 0.7815927342000000
  674.13 0.7801544660000000
  674.17 0.7787172526000000
  674.22 0.7772801137000001
  674.26 0.7758420682000000
  674.31 0.7744021343000000
  674.35 0.7729593291000000
  674.40 0.7715126693000000
  674.45 0.7700611706000000
  674.49 0.7686038478000000
  674.54 0.7671397151000000
  674.58 0.7656677857999999
  674.63 0.7641870723999999
  674.67 0.7626965865999999
  674.72 0.7611953393999999
  674.76 0.7596823409000000
  674.81 0.7581566005000000
  674.85 0.7566171266000000
  674.90 0.7550629270000000
  674.95 0.7534930086000000
  674.99 0.7519063775000000
  675.04 0.7503014347000000
  675.08 0.7486771317000001
  675.13 0.7470344927000000
  675.17 0.7453745860000000
  675.22 0.7436984805000000
  675.27 0.7420072462000000
  675.31 0.7403019537000000
  675.36 0.7385836748000000
  675.40 0.7368534820000000
  675.45 0.7351124485000000
  675.49 0.7333616487000000
  675.54 0.7316021577000000
  675.58 0.7298350514000000
  675.63 0.7280614068000000
  675.68 0.7262823014999999
  675.72 0.7244988142000000
  675.77 0.7227120244000000
  675.81 0.7209230124000000
  675.86 0.7191328595000001
  675.90 0.7173426478000000
  675.95 0.7155534603000000
  676.00 0.7137663809000000
  676.04 0.7119769048000000
  676.09 0.7101777615000000
  676.13 0.7083696419000000
  676.18 0.7065533066000000
  676.22 0.7047295171000000
  676.27 0.7028990353000000
  676.32 0.7010626239000000
  676.36 0.6992210460000000
  676.41 0.6973750656000000
  676.45 0.6955254470000000
  676.50 0.6936729555000000
  676.54 0.6918183567000000
  676.59 0.6899624169000000
  676.64 0.6881059032000000
  676.68 0.6862495830999999
  676.73 0.6843942247000000
  676.77 0.6825405970000000
  676.82 0.6806894695000000
  676.86 0.6788416121000000
  676.91 0.6769977955000001
  676.96 0.6751587912000000
  677.00 0.6733253675000000
  677.05 0.6714964254000000
  677.09 0.6696704021000000
  677.14 0.6678469433000001
  677.19 0.6660256942000000
  677.23 0.6642063001000000
  677.28 0.6623884056000000
  677.32 0.6605716552999999
  677.37 0.6587556934000000
  677.41 0.6569401637000000
  677.46 0.6551247100000001
  677.51 0.6533089756000000
  677.55 0.6514926034000000
  677.60 0.6496752364000000
  677.64 0.6478565168000000
  677.69 0.6460360870000000
  677.74 0.6442135888000000
  677.78 0.6423886638000000
  677.83 0.6405609533000000
  677.87 0.6387300983000000
  677.92 0.6368957396000000
  677.97 0.6350575174999999
  678.01 0.6332152767000000
  678.06 0.6313727463000000
  678.10 0.6295310841000000
  678.15 0.6276898244000000
  678.20 0.6258485010000000
  678.24 0.6240066472000000
  678.29 0.6221637961000001
  678.33 0.6203194802999999
  678.38 0.6184732321000000
  678.43 0.6166245833000000
  678.47 0.6147730655000000
  678.52 0.6129182098000000
  678.56 0.6110595469000000
  678.61 0.6091966072000000
  678.66 0.6073289206000000
  678.70 0.6054560167000000
  678.75 0.6035774248000000
  678.79 0.6016926736000000
  678.84 0.5998012916000000
  678.89 0.5979028069000000
  678.93 0.5959967472000000
  678.98 0.5940826397000000
  679.02 0.5921601902000000
  679.07 0.5902301375000000
  679.12 0.5882928582000000
  679.16 0.5863486261999999
  679.21 0.5843977154000000
  679.26 0.5824404002000000
  679.30 0.5804769550000000
  679.35 0.5785076546000000
  679.39 0.5765327740000000
  679.44 0.5745525882000000
  679.49 0.5725673727000000
  679.53 0.5705774032000001
  679.58 0.5685829554000000
  679.62 0.5665843055000001
  679.67 0.5645817297000000
  679.72 0.5625755046000001
  679.76 0.5605659070000000
  679.81 0.5585532137000000
  679.86 0.5565377021000000
  679.90 0.5545196495000000
  679.95 0.5524993337000000
  679.99 0.5504770324000000
  680.04 0.5484518758000000
  680.09 0.5464222581000000
  680.13 0.5443882627000000
  680.18 0.5423499933000000
  680.23 0.5403075536000000
  680.27 0.5382610473000000
  680.32 0.5362105784000000
  680.36 0.5341562508000000
  680.41 0.5320981686000000
  680.46 0.5300364358000000
  680.50 0.5279711567000001
  680.55 0.5259024355000000
  680.60 0.5238303768000000
  680.64 0.5217550848000000
  680.69 0.5196766643000000
  680.74 0.5175952198000000
  680.78 0.5155108560000000
  680.83 0.5134236778000000
  680.87 0.5113337901000000
  680.92 0.5092412978000000
  680.97 0.5071463061000000
  681.01 0.5050496620000000
  681.06 0.5029633410000000
  681.11 0.5008894765000000
  681.15 0.4988254244000000
  681.20 0.4967685386000000
  681.25 0.4947161706000000
  681.29 0.4926656699000000
  681.34 0.4906143837000000
  681.38 0.4885596572000000
  681.43 0.4864988333000000
  681.48 0.4844292528000000
  681.52 0.4823482543000000
  681.57 0.4802531741000000
  681.62 0.4781413466000000
  681.66 0.4760101039000000
  681.71 0.4738567756000000
  681.76 0.4716786897000000
  681.80 0.4694731716000000
  681.85 0.4672375447000000
  681.90 0.4649691300000000
  681.94 0.4626652466000000
  681.99 0.4603232112000000
  682.04 0.4579429656000000
  682.08 0.4555298598000000
  682.13 0.4530848616000000
  682.17 0.4506087014000000
  682.22 0.4481021100000000
  682.27 0.4455658190000000
  682.31 0.4430005604000000
  682.36 0.4404070670000000
  682.41 0.4377860721000000
  682.45 0.4351383095000000
  682.50 0.4324645140000000
  682.55 0.4297654205000000
  682.59 0.4270417649000000
  682.64 0.4242942834000000
  682.69 0.4215237131000000
  682.73 0.4187307915000000
  682.78 0.4159162568000000
  682.83 0.4130808477000000
  682.87 0.4102253037000000
  682.92 0.4073503648000000
  682.97 0.4044567715000000
  683.01 0.4015439458000000
  683.06 0.3985909104000000
  683.11 0.3955925264000000
  683.15 0.3925518851000000
  683.20 0.3894720801000000
  683.25 0.3863562076000000
  683.29 0.3832073664000000
  683.34 0.3800286578000000
  683.39 0.3768231856000000
  683.43 0.3735940564000000
  683.48 0.3703443791000000
  683.53 0.3670772651000000
  683.57 0.3637958286000000
  683.62 0.3605031862000000
  683.67 0.3572024572000000
  683.71 0.3538967632000000
  683.76 0.3505892285000000
  683.81 0.3472829802000000
  683.85 0.3439811476000000
  683.90 0.3406868627000000
  683.95 0.3374032602000000
  683.99 0.3341334772000000
  684.04 0.3308672758000000
  684.09 0.3275861823000000
  684.13 0.3242915585000000
  684.18 0.3209849990000000
  684.23 0.3176680996000000
  684.28 0.3143424573000000
  684.32 0.3110096706000000
  684.37 0.3076713392000000
  684.42 0.3043290641000000
  684.46 0.3009844476000000
  684.51 0.2976390935000000
  684.56 0.2942946068000000
  684.60 0.2909525936000000
  684.65 0.2876146618000000
  684.70 0.2842824201000000
  684.74 0.2809574789000000
  684.79 0.2776414498000000
  684.84 0.2743359457000000
  684.88 0.2710425808000000
  684.93 0.2677629707000000
  684.98 0.2644987322000000
  685.03 0.2612471995000000
  685.07 0.2579883613000000
  685.12 0.2547215830000000
  685.17 0.2514493684000000
  685.21 0.2481742232000000
  685.26 0.2448986552000000
  685.31 0.2416251743000000
  685.35 0.2383562924000000
  685.40 0.2350945235000000
  685.45 0.2318423837000000
  685.49 0.2286023911000000
  685.54 0.2253770660000000
  685.59 0.2221689306000000
  685.64 0.2189805092000000
  685.68 0.2158143284000000
  685.73 0.2126729165000000
  685.78 0.2095588043000000
  685.82 0.2064745242000000
  685.87 0.2034226112000000
  685.92 0.2004056019000000
  685.97 0.1974260353000000
  686.01 0.1944852101000000
  686.06 0.1915600265000000
  686.11 0.1886425664000000
  686.15 0.1857349970000000
  686.20 0.1828394875000000
  686.25 0.1799582089000000
  686.29 0.1770933339000000
  686.34 0.1742470369000000
  686.39 0.1714214944000000
  686.44 0.1686188845000000
  686.48 0.1658413868000000
  686.53 0.1630911833000000
  686.58 0.1603704572000000
  686.62 0.1576813940000000
  686.67 0.1550261805000000
  686.72 0.1524070058000000
  686.77 0.1498260604000000
  686.81 0.1472855368000000
  686.86 0.1447876293000000
  686.91 0.1423345339000000
  686.95 0.1399284484000000
  687.00 0.1375715463000000
  687.05 0.1352487800000000
  687.10 0.1329468192000000
  687.14 0.1306666946000000
  687.19 0.1284094378000000
  687.24 0.1261760811000000
  687.29 0.1239676579000000
  687.33 0.1217852022000000
  687.38 0.1196297489000000
  687.43 0.1175023339000000
  687.47 0.1154039937000000
  687.52 0.1133357659000000
  687.57 0.1112986888000000
  687.62 0.1092938016000000
  687.66 0.1073221444000000
  687.71 0.1053847579000000
  687.76 0.1034826841000000
  687.81 0.1016169655000000
  687.85 0.0997886454900000
  687.90 0.0979987684800000
  687.95 0.0962483796000000
  687.99 0.0945385248900000
  688.04 0.0928630415500000
  688.09 0.0912112685100000
  688.14 0.0895831509800000
  688.18 0.0879787568100000
  688.23 0.0863981539000000
  688.28 0.0848414102200000
  688.33 0.0833085937800000
  688.37 0.0817997726500000
  688.42 0.0803150149500000
  688.47 0.0788543888300000
  688.52 0.0774179625400000
  688.56 0.0760058043300000
  688.61 0.0746179825300000
  688.66 0.0732545655300000
  688.71 0.0719156217500000
  688.75 0.0706012196800000
  688.80 0.0693114278500000
  688.85 0.0680463148500000
  688.90 0.0668059493200000
  688.94 0.0655903999600000
  688.99 0.0643997355000000
  689.04 0.0632310499300000
  689.08 0.0620781119200000
  689.13 0.0609409414000000
  689.18 0.0598197748400000
  689.23 0.0587148488800000
  689.27 0.0576264003700000
  689.32 0.0565546663300000
  689.37 0.0554998840100000
  689.42 0.0544622908200000
  689.46 0.0534421243800000
  689.51 0.0524396224900000
  689.56 0.0514550231600000
  689.61 0.0504885645800000
  689.66 0.0495404851500000
  689.70 0.0486110234600000
  689.75 0.0477004182700000
  689.80 0.0468089085600000
  689.85 0.0459367335100000
  689.89 0.0450841324800000
  689.94 0.0442513450200000
  689.99 0.0434386108800000
  690.04 0.0426438311500000
  690.08 0.0418615014600000
  690.13 0.0410914244200000
  690.18 0.0403336507300000
  690.23 0.0395882311400000
  690.27 0.0388552164500000
  690.32 0.0381346574700000
  690.37 0.0374266050800000
  690.42 0.0367311101900000
  690.46 0.0360482237300000
  690.51 0.0353779967100000
  690.56 0.0347204801500000
  690.61 0.0340757251200000
  690.66 0.0334437827300000
  690.70 0.0328247041200000
  690.75 0.0322185404800000
  690.80 0.0316253430500000
  690.85 0.0310451630900000
  690.89 0.0304780519200000
  690.94 0.0299240608700000
  690.99 0.0293832413500000
  691.04 0.0288542978900000
  691.09 0.0283342595400000
  691.13 0.0278229784800000
  691.18 0.0273204131900000
  691.23 0.0268265221400000
  691.28 0.0263412637400000
  691.32 0.0258645963700000
  691.37 0.0253964783900000
  691.42 0.0249368681000000
  691.47 0.0244857237800000
  691.52 0.0240430036800000
  691.56 0.0236086659900000
  691.61 0.0231826688900000
  691.66 0.0227649705000000
  691.71 0.0223555289200000
  691.75 0.0219543022100000
  691.80 0.0215612483900000
  691.85 0.0211763254500000
  691.90 0.0207994913400000
  691.95 0.0204307039700000
  691.99 0.0200699212200000
  692.04 0.0197160305000000
  692.09 0.0193673020400000
  692.14 0.0190237793400000
  692.19 0.0186855314300000
  692.23 0.0183526273900000
  692.28 0.0180251363900000
  692.33 0.0177031276300000
  692.38 0.0173866703600000
  692.42 0.0170758339100000
  692.47 0.0167706876500000
  692.52 0.0164713010200000
  692.57 0.0161777435000000
  692.62 0.0158900846400000
  692.66 0.0156083940500000
  692.71 0.0153327413700000
  692.76 0.0150631963300000
  692.81 0.0147998286900000
  692.86 0.0145427083000000
  692.90 0.0142919050400000
  692.95 0.0140474888400000
  693.00 0.0138095295200000
  693.05 0.0135770777200000
  693.10 0.0133491285900000
  693.14 0.0131255863100000
  693.19 0.0129063549900000
  693.24 0.0126913386500000
  693.29 0.0124804412400000
  693.34 0.0122735666200000
  693.39 0.0120706185800000
  693.43 0.0118715008000000
  693.48 0.0116761169200000
  693.53 0.0114843704700000
  693.58 0.0112961649200000
  693.63 0.0111114036300000
  693.67 0.0109299899100000
  693.72 0.0107518269700000
  693.77 0.0105768179500000
  693.82 0.0104048659100000
  693.87 0.0102358738000000
  693.91 0.0100697445200000
  693.96 0.0099063808890000
  694.01 0.0097456788570000
  694.06 0.0095873797420000
  694.11 0.0094313882050000
  694.16 0.0092777016920000
  694.20 0.0091263176530000
  694.25 0.0089772335310000
  694.30 0.0088304467670000
  694.35 0.0086859548020000
  694.40 0.0085437550720000
  694.44 0.0084038450120000
  694.49 0.0082662220520000
  694.54 0.0081308836220000
  694.59 0.0079978271500000
  694.64 0.0078670500580000
  694.69 0.0077385497690000
  694.73 0.0076123237010000
  694.78 0.0074883692710000
  694.83 0.0073666838930000
  694.88 0.0072472649780000
  694.93 0.0071301099350000
  694.98 0.0070152161710000
  695.02 0.0069024888740000
  695.07 0.0067913549900000
  695.12 0.0066817305760000
  695.17 0.0065736331070000
  695.22 0.0064670800720000
  695.27 0.0063620889730000
  695.31 0.0062586773290000
  695.36 0.0061568626700000
  695.41 0.0060566625430000
  695.46 0.0059580945080000
  695.51 0.0058611761390000
  695.56 0.0057659250270000
  695.60 0.0056723587750000
  695.65 0.0055804950000000
  695.70 0.0054903513350000
  695.75 0.0054019454260000
  695.80 0.0053152949360000
  695.85 0.0052304175390000
  695.89 0.0051473309250000
  695.94 0.0050660528010000
  695.99 0.0049866008830000
  696.04 0.0049089930920000
  696.09 0.0048331824260000
  696.14 0.0047590688100000
  696.18 0.0046865514080000
  696.23 0.0046155293000000
  696.28 0.0045459014810000
  696.33 0.0044775668610000
  696.38 0.0044104242650000
  696.43 0.0043443724330000
  696.48 0.0042793100230000
  696.52 0.0042151356040000
  696.57 0.0041517476620000
  696.62 0.0040890446000000
  696.67 0.0040269247310000
  696.72 0.0039652862880000
  696.77 0.0039040274150000
  696.82 0.0038430461740000
  696.86 0.0037822405380000
  696.91 0.0037215083970000
  696.96 0.0036607475560000
  697.01 0.0035998498150000
  697.06 0.0035385789920000
  697.11 0.0034769539900000
  697.16 0.0034151111510000
  697.20 0.0033531869300000
  697.25 0.0032913178970000
  697.30 0.0032296407360000
  697.35 0.0031682922460000
  697.40 0.0031074093390000
  697.45 0.0030471290420000
  697.50 0.0029875884990000
  697.54 0.0029289249640000
  697.59 0.0028712758100000
  697.64 0.0028147785240000
  697.69 0.0027595707060000
  697.74 0.0027057900720000
  697.79 0.0026535744550000
  697.84 0.0026030618000000
  697.89 0.0025543901700000
  697.93 0.0025076977410000
  697.98 0.0024631228070000
  698.03 0.0024204407750000
  698.08 0.0023784816030000
  698.13 0.0023371729020000
  698.18 0.0022965476450000
  698.23 0.0022566388360000
  698.28 0.0022174795020000
  698.32 0.0021791027020000
  698.37 0.0021415415190000
  698.42 0.0021048290660000
  698.47 0.0020689984820000
  698.52 0.0020340829340000
  698.57 0.0020001156180000
  698.62 0.0019671297560000
  698.67 0.0019351585990000
  698.71 0.0019042354240000
  698.76 0.0018743935380000
  698.81 0.0018456662730000
  698.86 0.0018180869910000
  698.91 0.0017916890810000
  698.96 0.0017665059600000
  699.01 0.0017425687030000
  699.06 0.0017197567480000
  699.11 0.0016979319800000
  699.15 0.0016770171110000
  699.20 0.0016569347890000
  699.25 0.0016376075990000
  699.30 0.0016189580570000
  699.35 0.0016009086160000
  699.40 0.0015833816650000
  699.45 0.0015662995250000
  699.50 0.0015495844530000
  699.55 0.0015331586420000
  699.59 0.0015169442180000
  699.64 0.0015008632410000
  699.69 0.0014848377080000
  699.74 0.0014687895470000
  699.79 0.0014526406230000
  699.84 0.0014363127350000
  699.89 0.0014197276160000
  699.94 0.0014028069340000
  699.99 0.0013854722890000
  700.04 0.0013677391110000
  700.08 0.0013498401050000
  700.13 0.0013318166510000
  700.18 0.0013136965770000
  700.23 0.0012955077340000
  700.28 0.0012772779970000
  700.33 0.0012590352640000
  700.38 0.0012408074550000
  700.43 0.0012226225160000
  700.48 0.0012045084160000
  700.53 0.0011864931460000
  700.57 0.0011686047210000
  700.62 0.0011508711810000
  700.67 0.0011333205880000
  700.72 0.0011159810280000
  700.77 0.0010988806100000
  700.82 0.0010820474680000
  700.87 0.0010655097600000
  700.92 0.0010492956640000
  700.97 0.0010334333860000
  701.02 0.0010179278280000
  701.07 0.0010025066150000
  701.11 0.0009871045128000
