# HIMAWARI9 relative spectral response function for band 8
# (see http://www.data.jma.go.jp/mscweb/en/himawari89/space_segment/spsg_ahi.html#band)
# converted from 
# http://www.data.jma.go.jp/mscweb/en/himawari89/space_segment/srf_201309/AHI-08_SpectralResponsivity.zip
# http://www.data.jma.go.jp/mscweb/en/himawari89/space_segment/srf_201310/AHI-09_SpectralResponsivity.zip
# 
# LAMBDA   RSR
# 
 5596.28 0.0009987881449000
 5596.60 0.0010033793530000
 5596.91 0.0010090518780000
 5597.22 0.0010172951150000
 5597.54 0.0010281160080000
 5597.85 0.0010413294900000
 5598.16 0.0010569171480000
 5598.48 0.0010748997420000
 5598.79 0.0010943333500000
 5599.10 0.0011143105260000
 5599.42 0.0011354240390000
 5599.73 0.0011570378300000
 5600.04 0.0011774267120000
 5600.36 0.0011967245620000
 5600.67 0.0012150945370000
 5600.99 0.0012309570920000
 5601.30 0.0012443351460000
 5601.61 0.0012561924710000
 5601.93 0.0012659451190000
 5602.24 0.0012733677750000
 5602.55 0.0012793909060000
 5602.87 0.0012847619070000
 5603.18 0.0012899343270000
 5603.50 0.0012948531430000
 5603.81 0.0013001324170000
 5604.12 0.0013067341040000
 5604.44 0.0013155173920000
 5604.75 0.0013257499050000
 5605.07 0.0013382057380000
 5605.38 0.0013536909060000
 5605.70 0.0013711094180000
 5606.01 0.0013892077590000
 5606.32 0.0014095698410000
 5606.64 0.0014316682270000
 5606.95 0.0014540615720000
 5607.27 0.0014762848940000
 5607.58 0.0014986449810000
 5607.90 0.0015198154690000
 5608.21 0.0015390538340000
 5608.52 0.0015572341790000
 5608.84 0.0015736759660000
 5609.15 0.0015877188960000
 5609.47 0.0015999969890000
 5609.78 0.0016110191810000
 5610.10 0.0016210854230000
 5610.41 0.0016299671920000
 5610.73 0.0016385714450000
 5611.04 0.0016475716680000
 5611.36 0.0016576188020000
 5611.67 0.0016685800280000
 5611.99 0.0016808870300000
 5612.30 0.0016957981890000
 5612.62 0.0017125989550000
 5612.93 0.0017306720320000
 5613.25 0.0017505688920000
 5613.56 0.0017727202750000
 5613.88 0.0017957981630000
 5614.19 0.0018191305530000
 5614.51 0.0018432098760000
 5614.82 0.0018667730810000
 5615.14 0.0018886558170000
 5615.45 0.0019097393410000
 5615.77 0.0019293322340000
 5616.08 0.0019463578840000
 5616.40 0.0019613407430000
 5616.72 0.0019747716420000
 5617.03 0.0019867215430000
 5617.35 0.0019966308000000
 5617.66 0.0020055849290000
 5617.98 0.0020143618540000
 5618.29 0.0020234121150000
 5618.61 0.0020327062530000
 5618.92 0.0020430783820000
 5619.24 0.0020560229860000
 5619.56 0.0020711091090000
 5619.87 0.0020877413030000
 5620.19 0.0021066342050000
 5620.50 0.0021289542640000
 5620.82 0.0021530089300000
 5621.14 0.0021782223730000
 5621.45 0.0022053557380000
 5621.77 0.0022332185950000
 5622.08 0.0022602880560000
 5622.40 0.0022873116460000
 5622.72 0.0023136335010000
 5623.03 0.0023376911320000
 5623.35 0.0023596103830000
 5623.66 0.0023799326620000
 5623.98 0.0023983932630000
 5624.30 0.0024138025900000
 5624.61 0.0024276801230000
 5624.93 0.0024407491790000
 5625.25 0.0024526121290000
 5625.56 0.0024636092800000
 5625.88 0.0024750521910000
 5626.20 0.0024880187860000
 5626.51 0.0025020467480000
 5626.83 0.0025171675000000
 5627.15 0.0025342603090000
 5627.46 0.0025545299590000
 5627.78 0.0025765969010000
 5628.10 0.0026004185110000
 5628.41 0.0026267836550000
 5628.73 0.0026547806300000
 5629.05 0.0026829759070000
 5629.36 0.0027118121500000
 5629.68 0.0027409989800000
 5630.00 0.0027691452670000
 5630.31 0.0027952641280000
 5630.63 0.0028201571630000
 5630.95 0.0028435307220000
 5631.26 0.0028635295710000
 5631.58 0.0028818689390000
 5631.90 0.0028985138060000
 5632.22 0.0029127588420000
 5632.53 0.0029252171490000
 5632.85 0.0029371225280000
 5633.17 0.0029491892610000
 5633.49 0.0029607270250000
 5633.80 0.0029728044330000
 5634.12 0.0029866017610000
 5634.44 0.0030022315130000
 5634.76 0.0030196230760000
 5635.07 0.0030388775220000
 5635.39 0.0030609921250000
 5635.71 0.0030854088630000
 5636.03 0.0031108956810000
 5636.34 0.0031381563640000
 5636.66 0.0031664536920000
 5636.98 0.0031949395400000
 5637.30 0.0032226927310000
 5637.61 0.0032500251510000
 5637.93 0.0032760702540000
 5638.25 0.0032994475180000
 5638.57 0.0033213792410000
 5638.89 0.0033412110620000
 5639.20 0.0033575818210000
 5639.52 0.0033717970850000
 5639.84 0.0033845192720000
 5640.16 0.0033957777570000
 5640.48 0.0034051328860000
 5640.79 0.0034141082750000
 5641.11 0.0034237649080000
 5641.43 0.0034337848420000
 5641.75 0.0034444982060000
 5642.07 0.0034566209070000
 5642.39 0.0034712212800000
 5642.70 0.0034874566050000
 5643.02 0.0035055806910000
 5643.34 0.0035258957690000
 5643.66 0.0035477693970000
 5643.98 0.0035702150990000
 5644.30 0.0035932498060000
 5644.62 0.0036170209190000
 5644.93 0.0036402651510000
 5645.25 0.0036617486120000
 5645.57 0.0036826778890000
 5645.89 0.0037018176440000
 5646.21 0.0037179954500000
 5646.53 0.0037324057740000
 5646.85 0.0037451900840000
 5647.17 0.0037561339780000
 5647.48 0.0037653820400000
 5647.80 0.0037739733310000
 5648.12 0.0037826337500000
 5648.44 0.0037913221710000
 5648.76 0.0038006921500000
 5649.08 0.0038117800120000
 5649.40 0.0038252003260000
 5649.72 0.0038405618700000
 5650.04 0.0038579340980000
 5650.36 0.0038784984450000
 5650.68 0.0039019888860000
 5650.99 0.0039270244090000
 5651.31 0.0039539683520000
 5651.63 0.0039829914270000
 5651.95 0.0040122327520000
 5652.27 0.0040411652970000
 5652.59 0.0040703885850000
 5652.91 0.0040982540740000
 5653.23 0.0041238351370000
 5653.55 0.0041480529530000
 5653.87 0.0041704295760000
 5654.19 0.0041902886830000
 5654.51 0.0042078262790000
 5654.83 0.0042239087710000
 5655.15 0.0042386458450000
 5655.47 0.0042516778750000
 5655.79 0.0042642956060000
 5656.11 0.0042775125000000
 5656.43 0.0042909151010000
 5656.75 0.0043050089010000
 5657.07 0.0043207293200000
 5657.39 0.0043385598080000
 5657.71 0.0043582276420000
 5658.03 0.0043794040170000
 5658.35 0.0044028947330000
 5658.67 0.0044282686300000
 5658.99 0.0044540013680000
 5659.31 0.0044809141640000
 5659.63 0.0045083805950000
 5659.95 0.0045350635250000
 5660.27 0.0045605913900000
 5660.59 0.0045854644980000
 5660.91 0.0046086030610000
 5661.23 0.0046292433460000
 5661.55 0.0046478765710000
 5661.87 0.0046645830170000
 5662.19 0.0046788190480000
 5662.51 0.0046912464050000
 5662.83 0.0047029296100000
 5663.16 0.0047141339580000
 5663.48 0.0047244396410000
 5663.80 0.0047349499500000
 5664.12 0.0047469187600000
 5664.44 0.0047602603760000
 5664.76 0.0047750681710000
 5665.08 0.0047917301530000
 5665.40 0.0048113340680000
 5665.72 0.0048331003260000
 5666.04 0.0048559798150000
 5666.36 0.0048817233830000
 5666.69 0.0049088199150000
 5667.01 0.0049363875940000
 5667.33 0.0049646137940000
 5667.65 0.0049934531830000
 5667.97 0.0050214962690000
 5668.29 0.0050480133350000
 5668.61 0.0050735441740000
 5668.93 0.0050978444520000
 5669.26 0.0051196826980000
 5669.58 0.0051399575160000
 5669.90 0.0051592175060000
 5670.22 0.0051772203270000
 5670.54 0.0051940442970000
 5670.86 0.0052108820140000
 5671.18 0.0052285789900000
 5671.51 0.0052465181010000
 5671.83 0.0052656115900000
 5672.15 0.0052869851770000
 5672.47 0.0053110345400000
 5672.79 0.0053370142770000
 5673.12 0.0053650651180000
 5673.44 0.0053968478850000
 5673.76 0.0054302468250000
 5674.08 0.0054653459790000
 5674.40 0.0055025183830000
 5674.72 0.0055406841200000
 5675.05 0.0055783545750000
 5675.37 0.0056157352000000
 5675.69 0.0056527717360000
 5676.01 0.0056885496830000
 5676.34 0.0057220771770000
 5676.66 0.0057543501010000
 5676.98 0.0057850758580000
 5677.30 0.0058135794190000
 5677.62 0.0058406561570000
 5677.95 0.0058671497330000
 5678.27 0.0058931648560000
 5678.59 0.0059184906710000
 5678.91 0.0059444669950000
 5679.24 0.0059721948500000
 5679.56 0.0060013959030000
 5679.88 0.0060318390520000
 5680.20 0.0060649725360000
 5680.53 0.0061008925380000
 5680.85 0.0061387326920000
 5681.17 0.0061789117330000
 5681.50 0.0062218084360000
 5681.82 0.0062662336820000
 5682.14 0.0063110993050000
 5682.46 0.0063571599650000
 5682.79 0.0064035472910000
 5683.11 0.0064489910250000
 5683.43 0.0064933948090000
 5683.76 0.0065365996670000
 5684.08 0.0065774772350000
 5684.40 0.0066161091370000
 5684.73 0.0066530411990000
 5685.05 0.0066882569100000
 5685.37 0.0067212521060000
 5685.69 0.0067531240850000
 5686.02 0.0067852215730000
 5686.34 0.0068172764340000
 5686.66 0.0068495541820000
 5686.99 0.0068829622530000
 5687.31 0.0069190191350000
 5687.64 0.0069566809590000
 5687.96 0.0069965055170000
 5688.28 0.0070394094840000
 5688.61 0.0070850406670000
 5688.93 0.0071326385320000
 5689.25 0.0071821167030000
 5689.58 0.0072339191150000
 5689.90 0.0072868194070000
 5690.22 0.0073401875860000
 5690.55 0.0073942839270000
 5690.87 0.0074479580550000
 5691.20 0.0074998528910000
 5691.52 0.0075506928940000
 5691.84 0.0076004093800000
 5692.17 0.0076481919540000
 5692.49 0.0076938107170000
 5692.82 0.0077384055590000
 5693.14 0.0077820090840000
 5693.46 0.0078243033240000
 5693.79 0.0078662611250000
 5694.11 0.0079090141420000
 5694.44 0.0079529419470000
 5694.76 0.0079977215920000
 5695.09 0.0080452714160000
 5695.41 0.0080957144030000
 5695.73 0.0081489039300000
 5696.06 0.0082052444890000
 5696.38 0.0082656613200000
 5696.71 0.0083295250030000
 5697.03 0.0083955490440000
 5697.36 0.0084645453870000
 5697.68 0.0085363279280000
 5698.01 0.0086109762910000
 5698.33 0.0086890762060000
 5698.66 0.0087692106940000
 5698.98 0.0088521479320000
 5699.30 0.0089404939840000
 5699.63 0.0090324013400000
 5699.95 0.0091229142120000
 5700.28 0.0092090430850000
 5700.60 0.0092930144340000
 5700.93 0.0093766155290000
 5701.25 0.0094606056080000
 5701.58 0.0095458012870000
 5701.90 0.0096331698950000
 5702.23 0.0097269406700000
 5702.55 0.0098257111620000
 5702.88 0.0099294313790000
 5703.21 0.0100389475300000
 5703.53 0.0101553411700000
 5703.86 0.0102754818800000
 5704.18 0.0103970633300000
 5704.51 0.0105215839900000
 5704.83 0.0106460864600000
 5705.16 0.0107689901800000
 5705.48 0.0108901897700000
 5705.81 0.0110107532400000
 5706.13 0.0111313488100000
 5706.46 0.0112506882500000
 5706.79 0.0113717782400000
 5707.11 0.0114981261800000
 5707.44 0.0116281226800000
 5707.76 0.0117641712500000
 5708.09 0.0119106545900000
 5708.41 0.0120730005900000
 5708.74 0.0122451825300000
 5709.07 0.0124291994900000
 5709.39 0.0126245134900000
 5709.72 0.0128276739100000
 5710.04 0.0130355672800000
 5710.37 0.0132497126500000
 5710.70 0.0134689006100000
 5711.02 0.0136896201900000
 5711.35 0.0139117267300000
 5711.67 0.0141362072900000
 5712.00 0.0143689242900000
 5712.33 0.0146131842000000
 5712.65 0.0148676368700000
 5712.98 0.0151402517400000
 5713.31 0.0154421777300000
 5713.63 0.0157641583900000
 5713.96 0.0160999717500000
 5714.29 0.0164686843500000
 5714.61 0.0168628725000000
 5714.94 0.0172063026500000
 5715.27 0.0174558604900000
 5715.59 0.0176588872700000
 5715.92 0.0178356465500000
 5716.25 0.0179791048300000
 5716.57 0.0181053281600000
 5716.90 0.0182282758600000
 5717.23 0.0183578339800000
 5717.55 0.0184890340200000
 5717.88 0.0186210749800000
 5718.21 0.0187541918100000
 5718.53 0.0188880974800000
 5718.86 0.0190233881500000
 5719.19 0.0191615817800000
 5719.51 0.0193028987700000
 5719.84 0.0194453773200000
 5720.17 0.0195885153300000
 5720.50 0.0197324558600000
 5720.82 0.0198775367100000
 5721.15 0.0200246933300000
 5721.48 0.0201738530000000
 5721.81 0.0203245412000000
 5722.13 0.0204764425900000
 5722.46 0.0206299904800000
 5722.79 0.0207844480000000
 5723.12 0.0209395776500000
 5723.44 0.0210953147200000
 5723.77 0.0212518217700000
 5724.10 0.0214097146300000
 5724.43 0.0215693299800000
 5724.75 0.0217298197500000
 5725.08 0.0218903724100000
 5725.41 0.0220509564100000
 5725.74 0.0222118297200000
 5726.07 0.0223731236600000
 5726.39 0.0225350867400000
 5726.72 0.0226974204700000
 5727.05 0.0228600204400000
 5727.38 0.0230229329400000
 5727.70 0.0231862050600000
 5728.03 0.0233498687300000
 5728.36 0.0235137280300000
 5728.69 0.0236779654700000
 5729.02 0.0238431325900000
 5729.35 0.0240096928200000
 5729.67 0.0241770707900000
 5730.00 0.0243445739500000
 5730.33 0.0245124686700000
 5730.66 0.0246808571300000
 5730.99 0.0248510532900000
 5731.32 0.0250240994200000
 5731.64 0.0251991336000000
 5731.97 0.0253746620400000
 5732.30 0.0255495529700000
 5732.63 0.0257246878400000
 5732.96 0.0259016395100000
 5733.29 0.0260819948500000
 5733.62 0.0262644629400000
 5733.94 0.0264481021800000
 5734.27 0.0266309656900000
 5734.60 0.0268136406900000
 5734.93 0.0269977072600000
 5735.26 0.0271856241100000
 5735.59 0.0273759484900000
 5735.92 0.0275667789000000
 5736.25 0.0277569738300000
 5736.58 0.0279470903800000
 5736.91 0.0281377372300000
 5737.23 0.0283298129600000
 5737.56 0.0285231982600000
 5737.89 0.0287169376600000
 5738.22 0.0289101895800000
 5738.55 0.0291030348800000
 5738.88 0.0292965983700000
 5739.21 0.0294919110600000
 5739.54 0.0296887196700000
 5739.87 0.0298860755000000
 5740.20 0.0300831818700000
 5740.53 0.0302803562100000
 5740.86 0.0304781503100000
 5741.19 0.0306775449400000
 5741.52 0.0308783205500000
 5741.85 0.0310794518600000
 5742.18 0.0312801492500000
 5742.51 0.0314805404800000
 5742.84 0.0316813072000000
 5743.17 0.0318841968600000
 5743.50 0.0320892908700000
 5743.83 0.0322953127100000
 5744.16 0.0325011690100000
 5744.49 0.0327076578600000
 5744.82 0.0329153333700000
 5745.15 0.0331257622700000
 5745.48 0.0333390087300000
 5745.81 0.0335537299700000
 5746.14 0.0337685331100000
 5746.47 0.0339826970000000
 5746.80 0.0341988193700000
 5747.13 0.0344198206500000
 5747.46 0.0346459194900000
 5747.79 0.0348754317600000
 5748.12 0.0351067085500000
 5748.45 0.0353393566900000
 5748.78 0.0355759369300000
 5749.11 0.0358225760200000
 5749.44 0.0360815893700000
 5749.77 0.0363490124700000
 5750.10 0.0366301297100000
 5750.43 0.0369261052100000
 5750.76 0.0372292182500000
 5751.09 0.0375325149700000
 5751.42 0.0378370214600000
 5751.75 0.0381431409500000
 5752.09 0.0384510315100000
 5752.42 0.0387598790400000
 5752.75 0.0390700054400000
 5753.08 0.0393823352100000
 5753.41 0.0396973176500000
 5753.74 0.0400140643600000
 5754.07 0.0403314871300000
 5754.40 0.0406493554400000
 5754.73 0.0409682447800000
 5755.06 0.0412887585400000
 5755.40 0.0416121939400000
 5755.73 0.0419371888300000
 5756.06 0.0422627818400000
 5756.39 0.0425878221900000
 5756.72 0.0429137279300000
 5757.05 0.0432430835500000
 5757.38 0.0435800690300000
 5757.72 0.0439200585900000
 5758.05 0.0442596168400000
 5758.38 0.0445942815100000
 5758.71 0.0449319763700000
 5759.04 0.0452888273300000
 5759.37 0.0456791840500000
 5759.71 0.0460846079400000
 5760.04 0.0464933916100000
 5760.37 0.0469038416300000
 5760.70 0.0473190405300000
 5761.03 0.0477384313900000
 5761.36 0.0481637432800000
 5761.70 0.0485927067900000
 5762.03 0.0490245234800000
 5762.36 0.0494581507500000
 5762.69 0.0498944338900000
 5763.02 0.0503347122200000
 5763.36 0.0507787921900000
 5763.69 0.0512263356100000
 5764.02 0.0516797399500000
 5764.35 0.0521421609900000
 5764.69 0.0526102453500000
 5765.02 0.0530833092600000
 5765.35 0.0535547859100000
 5765.68 0.0540302182400000
 5766.02 0.0545252573000000
 5766.35 0.0550621678200000
 5766.68 0.0556237094400000
 5767.01 0.0561943477600000
 5767.35 0.0567680881100000
 5767.68 0.0573477248500000
 5768.01 0.0579335848800000
 5768.34 0.0585268451000000
 5768.68 0.0591264354700000
 5769.01 0.0597295571400000
 5769.34 0.0603359477100000
 5769.67 0.0609461097500000
 5770.01 0.0615593846600000
 5770.34 0.0621709404400000
 5770.67 0.0627854599900000
 5771.01 0.0634231595600000
 5771.34 0.0640984040800000
 5771.67 0.0647986984300000
 5772.01 0.0655040923600000
 5772.34 0.0662158544400000
 5772.67 0.0669336585300000
 5773.01 0.0676552193900000
 5773.34 0.0683807873300000
 5773.67 0.0691147295700000
 5774.01 0.0698587647500000
 5774.34 0.0706188205200000
 5774.67 0.0713901199400000
 5775.01 0.0721726455800000
 5775.34 0.0729622508700000
 5775.67 0.0737610163200000
 5776.01 0.0745825503700000
 5776.34 0.0754381431600000
 5776.67 0.0763178623300000
 5777.01 0.0772038258800000
 5777.34 0.0780951593900000
 5777.68 0.0789962181100000
 5778.01 0.0799075705000000
 5778.34 0.0808273719900000
 5778.68 0.0817568278900000
 5779.01 0.0827041912300000
 5779.34 0.0836798446100000
 5779.68 0.0846716513900000
 5780.01 0.0856747962300000
 5780.35 0.0866846419700000
 5780.68 0.0877007766200000
 5781.02 0.0887285138300000
 5781.35 0.0897710466800000
 5781.68 0.0908223536400000
 5782.02 0.0918915659800000
 5782.35 0.0929817844400000
 5782.69 0.0940902985700000
 5783.02 0.0952163575700000
 5783.36 0.0963623451000000
 5783.69 0.0975263748100000
 5784.02 0.0987026306600000
 5784.36 0.0998942307400000
 5784.69 0.1010999159000000
 5785.03 0.1023208986000000
 5785.36 0.1035565113000000
 5785.70 0.1048038356000000
 5786.03 0.1060659055000000
 5786.37 0.1073411972000000
 5786.70 0.1086321778000000
 5787.04 0.1099462077000000
 5787.37 0.1113116264000000
 5787.71 0.1127008954000000
 5788.04 0.1141043300000000
 5788.38 0.1155317588000000
 5788.71 0.1169744349000000
 5789.05 0.1184367553000000
 5789.38 0.1199170550000000
 5789.72 0.1214171478000000
 5790.05 0.1229434432000000
 5790.39 0.1244987502000000
 5790.72 0.1260800691000000
 5791.06 0.1276842369000000
 5791.39 0.1293146055000000
 5791.73 0.1309677978000000
 5792.06 0.1326359796000000
 5792.40 0.1343193157000000
 5792.74 0.1360192321000000
 5793.07 0.1377349450000000
 5793.41 0.1394710640000000
 5793.74 0.1412212296000000
 5794.08 0.1429830728000000
 5794.41 0.1447561459000000
 5794.75 0.1465547000000000
 5795.09 0.1483964637000000
 5795.42 0.1502889006000000
 5795.76 0.1522148787000000
 5796.09 0.1541745028000000
 5796.43 0.1561600891000000
 5796.77 0.1581714165000000
 5797.10 0.1602126815000000
 5797.44 0.1622856330000000
 5797.77 0.1643875777000000
 5798.11 0.1665160129000000
 5798.45 0.1686749920000000
 5798.78 0.1708588835000000
 5799.12 0.1730611510000000
 5799.45 0.1752917967000000
 5799.79 0.1775398246000000
 5800.13 0.1798034623000000
 5800.46 0.1820872670000000
 5800.80 0.1843857228000000
 5801.14 0.1867140665000000
 5801.47 0.1890722408000000
 5801.81 0.1914500399000000
 5802.15 0.1938428665000000
 5802.48 0.1962605673000000
 5802.82 0.1986932812000000
 5803.16 0.2011517759000000
 5803.49 0.2036278712000000
 5803.83 0.2061238089000000
 5804.17 0.2086483577000000
 5804.50 0.2111988470000000
 5804.84 0.2137768556000000
 5805.18 0.2163852559000000
 5805.52 0.2190244043000000
 5805.85 0.2216925074000000
 5806.19 0.2243903148000000
 5806.53 0.2271230856000000
 5806.86 0.2298789961000000
 5807.20 0.2326703237000000
 5807.54 0.2354804258000000
 5807.88 0.2383151814000000
 5808.21 0.2411822099000000
 5808.55 0.2440788411000000
 5808.89 0.2470053004000000
 5809.23 0.2499647661000000
 5809.56 0.2529608383000000
 5809.90 0.2559881805000000
 5810.24 0.2590643125000000
 5810.58 0.2621741565000000
 5810.91 0.2653116029000000
 5811.25 0.2684837425000000
 5811.59 0.2716852375000000
 5811.93 0.2749172551000000
 5812.26 0.2781827752000000
 5812.60 0.2814814837000000
 5812.94 0.2848059079000000
 5813.28 0.2881629953000000
 5813.62 0.2915541897000000
 5813.95 0.2949695564000000
 5814.29 0.2984216950000000
 5814.63 0.3019018748000000
 5814.97 0.3054085632000000
 5815.31 0.3089465851000000
 5815.64 0.3125109825000000
 5815.98 0.3160999441000000
 5816.32 0.3197152421000000
 5816.66 0.3233557591000000
 5817.00 0.3270139141000000
 5817.34 0.3306949992000000
 5817.67 0.3344033240000000
 5818.01 0.3381377066000000
 5818.35 0.3419005595000000
 5818.69 0.3456835784000000
 5819.03 0.3494904866000000
 5819.37 0.3533269141000000
 5819.71 0.3571882536000000
 5820.04 0.3610760638000000
 5820.38 0.3649982907000000
 5820.72 0.3689410132000000
 5821.06 0.3729036468000000
 5821.40 0.3768922920000000
 5821.74 0.3808992204000000
 5822.08 0.3849261570000000
 5822.42 0.3889695661000000
 5822.76 0.3930278322000000
 5823.09 0.3971068020000000
 5823.43 0.4012109882000000
 5823.77 0.4053306937000000
 5824.11 0.4094540546000000
 5824.45 0.4135829833000000
 5824.79 0.4177178362000000
 5825.13 0.4218589713000000
 5825.47 0.4260188353000000
 5825.81 0.4301910934000000
 5826.15 0.4343757902000000
 5826.49 0.4385773760000000
 5826.83 0.4427901949000000
 5827.17 0.4470166724000000
 5827.51 0.4512546370000000
 5827.85 0.4555018437000000
 5828.19 0.4597574449000000
 5828.52 0.4640229649000000
 5828.86 0.4682940841000000
 5829.20 0.4725709573000000
 5829.54 0.4768653762000000
 5829.88 0.4811651502000000
 5830.22 0.4854627005000000
 5830.56 0.4897617207000000
 5830.90 0.4940557923000000
 5831.24 0.4983415591000000
 5831.58 0.5026218996000000
 5831.92 0.5068884103000000
 5832.26 0.5111312087000000
 5832.60 0.5153526439000000
 5832.94 0.5195491974000001
 5833.28 0.5237078593000000
 5833.63 0.5278482042000000
 5833.97 0.5319666406000000
 5834.31 0.5360615961000000
 5834.65 0.5401345579000000
 5834.99 0.5441828490000000
 5835.33 0.5482038538000000
 5835.67 0.5522003622000000
 5836.01 0.5561780580000000
 5836.35 0.5601317109000000
 5836.69 0.5640684784000000
 5837.03 0.5679924677000000
 5837.37 0.5719113425000000
 5837.71 0.5758225915000000
 5838.05 0.5797163818000000
 5838.39 0.5835957700000000
 5838.73 0.5874569187999999
 5839.08 0.5912878825000000
 5839.42 0.5950769181000000
 5839.76 0.5988312648000000
 5840.10 0.6025268494000000
 5840.44 0.6061586626000000
 5840.78 0.6097501041000000
 5841.12 0.6132905412000000
 5841.46 0.6167886709000000
 5841.80 0.6202439038999999
 5842.15 0.6236507924000000
 5842.49 0.6270146134000000
 5842.83 0.6303288727000000
 5843.17 0.6335827781000000
 5843.51 0.6367736205000000
 5843.85 0.6399274837000000
 5844.19 0.6430564012000000
 5844.54 0.6461573232000000
 5844.88 0.6492357961000000
 5845.22 0.6522876070000000
 5845.56 0.6553206995000000
 5845.90 0.6583089694000001
 5846.24 0.6611959890000000
 5846.59 0.6640108378000000
 5846.93 0.6667616747000000
 5847.27 0.6694185249000000
 5847.61 0.6719796622000000
 5847.95 0.6744624661000000
 5848.30 0.6768225808000000
 5848.64 0.6791055403000000
 5848.98 0.6813275672000000
 5849.32 0.6834863564000000
 5849.66 0.6855886593000000
 5850.01 0.6876578497000000
 5850.35 0.6896963263000000
 5850.69 0.6917041437000000
 5851.03 0.6936990872000000
 5851.38 0.6956782439000000
 5851.72 0.6976505896000000
 5852.06 0.6996262822000000
 5852.40 0.7015975375000000
 5852.74 0.7035483920000000
 5853.09 0.7054526449000000
 5853.43 0.7073015463000000
 5853.77 0.7091227037000000
 5854.12 0.7109323950999999
 5854.46 0.7127167165000000
 5854.80 0.7145071166000000
 5855.14 0.7163501155999999
 5855.49 0.7182213495999999
 5855.83 0.7201255028000000
 5856.17 0.7220956210000000
 5856.52 0.7241125372000000
 5856.86 0.7261874664000000
 5857.20 0.7283447752000000
 5857.54 0.7305874468000000
 5857.89 0.7328874896000001
 5858.23 0.7352188701000000
 5858.57 0.7375912789000000
 5858.92 0.7400342353000000
 5859.26 0.7426242881000000
 5859.60 0.7455035650000000
 5859.95 0.7497070177000000
 5860.29 0.7762360353000000
 5860.63 0.8303236169000000
 5860.98 0.8639771295999999
 5861.32 0.8660642804000001
 5861.66 0.8671278613000000
 5862.01 0.8681590441000000
 5862.35 0.8694109416000000
 5862.70 0.8706329444000001
 5863.04 0.8718255090000000
 5863.38 0.8729784779000000
 5863.73 0.8741191235000000
 5864.07 0.8752521509000000
 5864.41 0.8763927344000000
 5864.76 0.8775219231000000
 5865.10 0.8786102705000000
 5865.45 0.8796589167000000
 5865.79 0.8806747948000000
 5866.13 0.8816389752000000
 5866.48 0.8825527151000000
 5866.82 0.8834298168000000
 5867.17 0.8842573477000000
 5867.51 0.8850791893000000
 5867.86 0.8858693682000000
 5868.20 0.8866014378000000
 5868.54 0.8872909326000000
 5868.89 0.8879396938000000
 5869.23 0.8885554274000000
 5869.58 0.8891448937000000
 5869.92 0.8896657632000000
 5870.27 0.8900414620000000
 5870.61 0.8903617826000000
 5870.96 0.8906718219000000
 5871.30 0.8909840760000000
 5871.65 0.8912900250000000
 5871.99 0.8915705112000000
 5872.34 0.8918092019000000
 5872.68 0.8920284776000000
 5873.03 0.8922365916000000
 5873.37 0.8924364070000000
 5873.72 0.8926325009000000
 5874.06 0.8928320987000000
 5874.41 0.8930368714000000
 5874.75 0.8932374203000000
 5875.10 0.8934232666000000
 5875.44 0.8935904421999999
 5875.79 0.8937496690000000
 5876.13 0.8939105720000000
 5876.48 0.8940748731000000
 5876.82 0.8942337107000000
 5877.17 0.8943766356000000
 5877.51 0.8945062582000000
 5877.86 0.8946503786000000
 5878.20 0.8948155955000000
 5878.55 0.8950030706000000
 5878.89 0.8951764518000001
 5879.24 0.8953033757000000
 5879.59 0.8954204462000001
 5879.93 0.8955330245000001
 5880.28 0.8956432209000000
 5880.62 0.8957513969999999
 5880.97 0.8958374484000000
 5881.32 0.8959029706000000
 5881.66 0.8959577346000001
 5882.01 0.8959801281999999
 5882.35 0.8959710045000000
 5882.70 0.8959493682000000
 5883.05 0.8959224542000001
 5883.39 0.8958845965000000
 5883.74 0.8958320474000000
 5884.08 0.8957669715000000
 5884.43 0.8956723309000000
 5884.78 0.8955586062000001
 5885.12 0.8954463364000000
 5885.47 0.8953421361000000
 5885.82 0.8952420150000000
 5886.16 0.8951421239000000
 5886.51 0.8950403854000000
 5886.85 0.8949383017000000
 5887.20 0.8948341998000000
 5887.55 0.8947277624000000
 5887.89 0.8946196370000000
 5888.24 0.8945106208000000
 5888.59 0.8944006933000000
 5888.93 0.8942866752000000
 5889.28 0.8941662445000000
 5889.63 0.8940367311000000
 5889.98 0.8938924579999999
 5890.32 0.8937260446000000
 5890.67 0.8935447260000000
 5891.02 0.8933595738000000
 5891.36 0.8931808884000000
 5891.71 0.8929961302000000
 5892.06 0.8927829225000000
 5892.40 0.8925164707000000
 5892.75 0.8922249489000000
 5893.10 0.8918981555000000
 5893.45 0.8915231713000000
 5893.79 0.8911250541000000
 5894.14 0.8907227209000000
 5894.49 0.8903099386000000
 5894.84 0.8898966386000000
 5895.18 0.8894690083000000
 5895.53 0.8890237188000000
 5895.88 0.8885798428000000
 5896.23 0.8881504970000000
 5896.57 0.8877280749999999
 5896.92 0.8873224729000000
 5897.27 0.8869477239000000
 5897.62 0.8865774672000000
 5897.97 0.8862051252000001
 5898.31 0.8858236735000000
 5898.66 0.8854383136000000
 5899.01 0.8850685744000000
 5899.36 0.8847288826000000
 5899.71 0.8844051036000000
 5900.05 0.8840965921000000
 5900.40 0.8838082566000000
 5900.75 0.8835420716000000
 5901.10 0.8832865656000000
 5901.45 0.8830415322000000
 5901.79 0.8827958764000000
 5902.14 0.8825321415000000
 5902.49 0.8822470062000000
 5902.84 0.8819515667000000
 5903.19 0.8816523007000000
 5903.54 0.8813513148000000
 5903.88 0.8810426349000000
 5904.23 0.8807202263000000
 5904.58 0.8803848632000000
 5904.93 0.8800421668000000
 5905.28 0.8797013178000000
 5905.63 0.8793688538000000
 5905.98 0.8790346558000000
 5906.33 0.8786942303000000
 5906.67 0.8783509379000000
 5907.02 0.8780059363000000
 5907.37 0.8776640310000000
 5907.72 0.8773188255000000
 5908.07 0.8769515362000000
 5908.42 0.8764895698000000
 5908.77 0.8759733436000000
 5909.12 0.8754346459000000
 5909.47 0.8748615391000000
 5909.82 0.8742659377999999
 5910.17 0.8736702179000000
 5910.51 0.8730256036000000
 5910.86 0.8723348162000000
 5911.21 0.8716296438000000
 5911.56 0.8709012794000000
 5911.91 0.8701937281000000
 5912.26 0.8695445919000000
 5912.61 0.8689356899000000
 5912.96 0.8683650333000000
 5913.31 0.8677863390000000
 5913.66 0.8672019850000000
 5914.01 0.8666355035000000
 5914.36 0.8660823421000000
 5914.71 0.8655485372000000
 5915.06 0.8650680464000000
 5915.41 0.8646443886000000
 5915.76 0.8642750821000000
 5916.11 0.8639702111000001
 5916.46 0.8637028261000000
 5916.81 0.8634571048000000
 5917.16 0.8632270491000000
 5917.51 0.8630165104000000
 5917.86 0.8628105436000000
 5918.21 0.8625988559000000
 5918.56 0.8624052010000000
 5918.91 0.8622266795000000
 5919.26 0.8620650887000000
 5919.61 0.8619180158000000
 5919.96 0.8617802777000000
 5920.31 0.8616484579000000
 5920.66 0.8614977037000000
 5921.01 0.8613424556000000
 5921.36 0.8611969288000000
 5921.71 0.8610521767000000
 5922.07 0.8608965622000000
 5922.42 0.8607315775000000
 5922.77 0.8605523118000000
 5923.12 0.8603437006000000
 5923.47 0.8600898135000000
 5923.82 0.8598172338000000
 5924.17 0.8595339216000000
 5924.52 0.8592401440000000
 5924.87 0.8589397294000000
 5925.22 0.8586362952000000
 5925.57 0.8583280193000000
 5925.93 0.8580161938999999
 5926.28 0.8576858438000000
 5926.63 0.8573428624000000
 5926.98 0.8569928193000000
 5927.33 0.8566304992000000
 5927.68 0.8562613878999999
 5928.03 0.8559029907000000
 5928.39 0.8555594607000000
 5928.74 0.8552249051000000
 5929.09 0.8548972489000000
 5929.44 0.8545732790000000
 5929.79 0.8542588879000000
 5930.14 0.8539612176000000
 5930.49 0.8536758669000000
 5930.85 0.8534067914000000
 5931.20 0.8531697962000000
 5931.55 0.8529581597000000
 5931.90 0.8527588833000000
 5932.25 0.8525700249000000
 5932.61 0.8523905716000000
 5932.96 0.8522229785000000
 5933.31 0.8520670499000000
 5933.66 0.8519218800000000
 5934.01 0.8517935198000000
 5934.37 0.8516947754000000
 5934.72 0.8516056566000000
 5935.07 0.8515173016000001
 5935.42 0.8514300766000000
 5935.77 0.8513419313000000
 5936.13 0.8512478771999999
 5936.48 0.8511447580000000
 5936.83 0.8510360082000000
 5937.18 0.8509235850000000
 5937.54 0.8508069789000000
 5937.89 0.8506840691999999
 5938.24 0.8505505689000000
 5938.59 0.8504071662000000
 5938.95 0.8502691186000000
 5939.30 0.8501388660000000
 5939.65 0.8500136252000000
 5940.01 0.8498981026000000
 5940.36 0.8497958844000000
 5940.71 0.8497041194000000
 5941.06 0.8496376314000000
 5941.42 0.8495839157000000
 5941.77 0.8495530855000000
 5942.12 0.8495647092000000
 5942.48 0.8496036768000000
 5942.83 0.8496612198000000
 5943.18 0.8497361070000000
 5943.54 0.8498420689000000
 5943.89 0.8499533012000000
 5944.24 0.8500871617000000
 5944.60 0.8502423318000000
 5944.95 0.8504034858000000
 5945.30 0.8505655067000000
 5945.66 0.8507314693000000
 5946.01 0.8508876395000000
 5946.36 0.8510279236000000
 5946.72 0.8511515273000000
 5947.07 0.8512576952000001
 5947.42 0.8513434075000000
 5947.78 0.8514165379000000
 5948.13 0.8514757116000000
 5948.49 0.8515256738000000
 5948.84 0.8515668823000000
 5949.19 0.8515997342000000
 5949.55 0.8516278561000000
 5949.90 0.8516434783000000
 5950.26 0.8516426915000000
 5950.61 0.8516359471000000
 5950.96 0.8516314364999999
 5951.32 0.8516504722000000
 5951.67 0.8517094516000000
 5952.03 0.8517775104999999
 5952.38 0.8518243623000000
 5952.74 0.8518684404000000
 5953.09 0.8519263228000000
 5953.44 0.8520104986000000
 5953.80 0.8520915331000000
 5954.15 0.8521731337000000
 5954.51 0.8522512084000000
 5954.86 0.8523225340000000
 5955.22 0.8523772205000000
 5955.57 0.8524224019000000
 5955.93 0.8524606354000001
 5956.28 0.8524926678000000
 5956.64 0.8525199015000000
 5956.99 0.8525464126000000
 5957.35 0.8525739778000000
 5957.70 0.8526009480000000
 5958.06 0.8526260235999999
 5958.41 0.8526433557999999
 5958.77 0.8526608332000000
 5959.12 0.8526941138000000
 5959.48 0.8527583142000000
 5959.83 0.8528366021000000
 5960.19 0.8529255051000000
 5960.54 0.8530459218000001
 5960.90 0.8531991366000000
 5961.25 0.8533829398000000
 5961.61 0.8536023523000000
 5961.96 0.8538515678000000
 5962.32 0.8541615157000000
 5962.67 0.8544959629000000
 5963.03 0.8548514077000000
 5963.38 0.8552331354000000
 5963.74 0.8556384728000000
 5964.10 0.8560585477000000
 5964.45 0.8564996419999999
 5964.81 0.8569531441000000
 5965.16 0.8574051351000000
 5965.52 0.8578589015000000
 5965.88 0.8583143411000000
 5966.23 0.8587782685999999
 5966.59 0.8592517095000000
 5966.94 0.8597275912000000
 5967.30 0.8602099039000000
 5967.66 0.8606970317000000
 5968.01 0.8611893539000000
 5968.37 0.8616914835000000
 5968.72 0.8621976041000000
 5969.08 0.8626960437000000
 5969.44 0.8631866394000000
 5969.79 0.8636679423000000
 5970.15 0.8641280984000000
 5970.51 0.8645663016000000
 5970.86 0.8650042197000000
 5971.22 0.8654601176000000
 5971.58 0.8659296436000000
 5971.93 0.8664021539000000
 5972.29 0.8668720714000000
 5972.65 0.8673424961000000
 5973.00 0.8678108254000000
 5973.36 0.8682774964000000
 5973.72 0.8687395860000000
 5974.07 0.8691865083000000
 5974.43 0.8696093454000000
 5974.79 0.8700191508000000
 5975.14 0.8704083262000000
 5975.50 0.8707772912000000
 5975.86 0.8711327804000000
 5976.21 0.8714763142000000
 5976.57 0.8718076605000000
 5976.93 0.8721303824000000
 5977.29 0.8724473611000000
 5977.64 0.8727527617000000
 5978.00 0.8730381471000001
 5978.36 0.8732828245000001
 5978.72 0.8735078016000000
 5979.07 0.8737270971000000
 5979.43 0.8739450526000000
 5979.79 0.8741540569000000
 5980.15 0.8743463899000000
 5980.50 0.8745216362000000
 5980.86 0.8746917739000000
 5981.22 0.8748604258000000
 5981.58 0.8750245969000000
 5981.93 0.8752076088000000
 5982.29 0.8754445003000000
 5982.65 0.8757087835000000
 5983.01 0.8760031921000000
 5983.37 0.8762701958000000
 5983.72 0.8765283826000000
 5984.08 0.8768001972000000
 5984.44 0.8770829528000000
 5984.80 0.8773825069000000
 5985.16 0.8777156098000000
 5985.52 0.8781008981000000
 5985.87 0.8785462758000000
 5986.23 0.8790537500000000
 5986.59 0.8796152287000000
 5986.95 0.8802175926000000
 5987.31 0.8808644267000000
 5987.67 0.8815598667000000
 5988.02 0.8822881737000000
 5988.38 0.8830793974000000
 5988.74 0.8838962124999999
 5989.10 0.8847000501000000
 5989.46 0.8854868957000001
 5989.82 0.8862729946000000
 5990.18 0.8870961546000000
 5990.53 0.8879601758000000
 5990.89 0.8887582514000000
 5991.25 0.8895568886000000
 5991.61 0.8903603967000000
 5991.97 0.8911202827000000
 5992.33 0.8918232554000000
 5992.69 0.8924835403000000
 5993.05 0.8930748371000000
 5993.41 0.8935651390000000
 5993.77 0.8939893983000000
 5994.13 0.8943593337000000
 5994.49 0.8946950625000000
 5994.84 0.8949580685000000
 5995.20 0.8951216198000000
 5995.56 0.8952536497000000
 5995.92 0.8953631203000000
 5996.28 0.8954515974000000
 5996.64 0.8955253992000000
 5997.00 0.8955936141000000
 5997.36 0.8956544088000000
 5997.72 0.8957125214000000
 5998.08 0.8957892179000000
 5998.44 0.8958857200000000
 5998.80 0.8959759366000000
 5999.16 0.8960837878000000
 5999.52 0.8962142455000000
 5999.88 0.8963692285000000
 6000.24 0.8965606636000000
 6000.60 0.8968017308000000
 6000.96 0.8970676896000001
 6001.32 0.8973596400000000
 6001.68 0.8976688186000000
 6002.04 0.8979876275000001
 6002.40 0.8983268637000000
 6002.76 0.8986672207000000
 6003.12 0.8989789938000000
 6003.48 0.8992616610000000
 6003.84 0.8995328017999999
 6004.20 0.8998096113000000
 6004.56 0.9000932197000000
 6004.92 0.9003519144000000
 6005.28 0.9005651046000001
 6005.65 0.9007519173000000
 6006.01 0.9009247052000000
 6006.37 0.9010817406000000
 6006.73 0.9012246800000000
 6007.09 0.9013493281000000
 6007.45 0.9014629046000000
 6007.81 0.9015601432000000
 6008.17 0.9016290804000000
 6008.53 0.9016786017000000
 6008.89 0.9017213130000000
 6009.25 0.9017795562000001
 6009.62 0.9018926307000000
 6009.98 0.9020367416000000
 6010.34 0.9022127016000000
 6010.70 0.9024301039000000
 6011.06 0.9026660813000000
 6011.42 0.9029282952000000
 6011.78 0.9032112110000000
 6012.14 0.9034959618000000
 6012.51 0.9037910444000000
 6012.87 0.9040812262000000
 6013.23 0.9043510678000000
 6013.59 0.9046092391000000
 6013.95 0.9048455682000000
 6014.31 0.9050433543000000
 6014.68 0.9052225833000000
 6015.04 0.9054059489000000
 6015.40 0.9056008735000000
 6015.76 0.9057543476000000
 6016.12 0.9058394015000000
 6016.49 0.9058854210000000
 6016.85 0.9059112333000000
 6017.21 0.9058623148000000
 6017.57 0.9057487147000000
 6017.93 0.9056178607000001
 6018.30 0.9054740414000000
 6018.66 0.9053115441000000
 6019.02 0.9051427042000000
 6019.38 0.9049763034000000
 6019.74 0.9048008816999999
 6020.11 0.9045989941000000
 6020.47 0.9043585309000000
 6020.83 0.9040927701000000
 6021.19 0.9038128993000000
 6021.56 0.9035077486000000
 6021.92 0.9032038403000000
 6022.28 0.9029291393000000
 6022.65 0.9026753610000000
 6023.01 0.9024130259000001
 6023.37 0.9021193165000000
 6023.73 0.9018124615000001
 6024.10 0.9015214582000000
 6024.46 0.9012449305000000
 6024.82 0.9009815621000000
 6025.19 0.9007342264000000
 6025.55 0.9004784486000000
 6025.91 0.9002192925000000
 6026.27 0.8999623706000000
 6026.64 0.8997049013000000
 6027.00 0.8994505065000000
 6027.36 0.8992007117000000
 6027.73 0.8989541549000000
 6028.09 0.8987106142000000
 6028.45 0.8984717568000000
 6028.82 0.8982338665000000
 6029.18 0.8979922464000000
 6029.54 0.8977466842000000
 6029.91 0.8974937374000000
 6030.27 0.8972243961000000
 6030.64 0.8969406728000000
 6031.00 0.8966341743000000
 6031.36 0.8963159713000000
 6031.73 0.8959842454000000
 6032.09 0.8956224542000000
 6032.45 0.8952142407000000
 6032.82 0.8947864974000000
 6033.18 0.8943613413000000
 6033.55 0.8939330883000000
 6033.91 0.8934945399999999
 6034.27 0.8930345331000000
 6034.64 0.8925566225000000
 6035.00 0.8920824240000000
 6035.37 0.8916169315000000
 6035.73 0.8911576089000000
 6036.10 0.8907143717000000
 6036.46 0.8902908314000000
 6036.82 0.8898844516000000
 6037.19 0.8894990788000000
 6037.55 0.8891268067000000
 6037.92 0.8887699475000000
 6038.28 0.8884431441000000
 6038.65 0.8881627235000000
 6039.01 0.8879100390000000
 6039.38 0.8876952991000000
 6039.74 0.8874954973000000
 6040.11 0.8872944221000000
 6040.47 0.8870899252000000
 6040.84 0.8868907870000000
 6041.20 0.8867128531000000
 6041.57 0.8865548529000000
 6041.93 0.8863900890000000
 6042.30 0.8862001637000000
 6042.66 0.8859919695000000
 6043.03 0.8857751203999999
 6043.39 0.8855490896000000
 6043.76 0.8853143625000000
 6044.12 0.8850682769000000
 6044.49 0.8848094716000000
 6044.85 0.8845376957000000
 6045.22 0.8842476463000000
 6045.58 0.8839375400000000
 6045.95 0.8836163435000000
 6046.31 0.8832853377000000
 6046.68 0.8829596148000000
 6047.05 0.8826701288000000
 6047.41 0.8824643775000000
 6047.78 0.8822783339000000
 6048.14 0.8820831130000000
 6048.51 0.8818742735000000
 6048.87 0.8816902014000000
 6049.24 0.8815529008000000
 6049.61 0.8814230284000000
 6049.97 0.8812915864999999
 6050.34 0.8811555950000000
 6050.70 0.8810121042000000
 6051.07 0.8808478293000001
 6051.44 0.8806540979000000
 6051.80 0.8804432021000000
 6052.17 0.8802247281000000
 6052.54 0.8799959459000000
 6052.90 0.8797550734000000
 6053.27 0.8795014218000000
 6053.64 0.8792337897000000
 6054.00 0.8789512994000001
 6054.37 0.8786409061000000
 6054.73 0.8782920591000000
 6055.10 0.8779374017000000
 6055.47 0.8775760455000000
 6055.83 0.8772010384000000
 6056.20 0.8768106378000000
 6056.57 0.8764026246000000
 6056.94 0.8760074553000000
 6057.30 0.8756446946999999
 6057.67 0.8752942116000000
 6058.04 0.8749658469000000
 6058.40 0.8746628909000000
 6058.77 0.8743806070000000
 6059.14 0.8741335212000000
 6059.50 0.8739094289000000
 6059.87 0.8737170499000000
 6060.24 0.8735637463000000
 6060.61 0.8734328019000001
 6060.97 0.8733342260000000
 6061.34 0.8732588459000000
 6061.71 0.8731994534999999
 6062.08 0.8731816754000000
 6062.44 0.8731874848000000
 6062.81 0.8732174843000000
 6063.18 0.8732639089000001
 6063.55 0.8733269949000000
 6063.91 0.8733947426000001
 6064.28 0.8734537677999999
 6064.65 0.8735077365000000
 6065.02 0.8735728981000001
 6065.38 0.8736639148999999
 6065.75 0.8737660114000000
 6066.12 0.8738783522000000
 6066.49 0.8740057250000000
 6066.86 0.8741424075000001
 6067.22 0.8742814052000000
 6067.59 0.8744253553000000
 6067.96 0.8745748868000000
 6068.33 0.8747322333999999
 6068.70 0.8748958330000000
 6069.07 0.8750578248000001
 6069.43 0.8752172635000000
 6069.80 0.8753754814000000
 6070.17 0.8755329235000000
 6070.54 0.8756844848999999
 6070.91 0.8758180849000000
 6071.28 0.8759316964000000
 6071.65 0.8760322865000000
 6072.01 0.8761179042000000
 6072.38 0.8761942252000000
 6072.75 0.8762659814000000
 6073.12 0.8763230204000000
 6073.49 0.8763463816000000
 6073.86 0.8763584378000000
 6074.23 0.8763505954000000
 6074.60 0.8763088759000000
 6074.97 0.8762551480000000
 6075.33 0.8761959620000001
 6075.70 0.8761250938000000
 6076.07 0.8760583901000000
 6076.44 0.8759888198000000
 6076.81 0.8759304347000000
 6077.18 0.8759050256000001
 6077.55 0.8758901681000000
 6077.92 0.8758828843000001
 6078.29 0.8759006326000000
 6078.66 0.8759413256000000
 6079.03 0.8759801944000000
 6079.40 0.8760101526000000
 6079.77 0.8760361481000000
 6080.14 0.8760739419000000
 6080.51 0.8761313329000000
 6080.88 0.8761865460000000
 6081.25 0.8762058991000000
 6081.62 0.8761990985000000
 6081.99 0.8761864861000001
 6082.36 0.8761441463000000
 6082.73 0.8760641079000000
 6083.10 0.8759783065000000
 6083.47 0.8758778250000000
 6083.84 0.8757736496000000
 6084.21 0.8756876947000000
 6084.58 0.8756122903000000
 6084.95 0.8755442847000000
 6085.32 0.8754734903000000
 6085.69 0.8754067357999999
 6086.06 0.8753842355000000
 6086.43 0.8754262764000000
 6086.80 0.8755083089000000
 6087.17 0.8756144613000000
 6087.54 0.8757396069000000
 6087.91 0.8758841200000000
 6088.28 0.8760619814000000
 6088.65 0.8762789454000000
 6089.02 0.8765308727000000
 6089.39 0.8768354076000000
 6089.76 0.8771793586000000
 6090.13 0.8775239202000000
 6090.50 0.8778661759000000
 6090.88 0.8782054379000001
 6091.25 0.8785377143999999
 6091.62 0.8788650331000000
 6091.99 0.8791832659000000
 6092.36 0.8794932679000000
 6092.73 0.8797936466000000
 6093.10 0.8800746897000000
 6093.47 0.8803315361000000
 6093.85 0.8805777970999999
 6094.22 0.8808227584000000
 6094.59 0.8810669971000000
 6094.96 0.8813142412000000
 6095.33 0.8815663301000000
 6095.70 0.8818219908000000
 6096.07 0.8820930081000000
 6096.45 0.8823836222000000
 6096.82 0.8826973216000000
 6097.19 0.8830533116000000
 6097.56 0.8834381346000000
 6097.93 0.8838417638000000
 6098.30 0.8842687521000000
 6098.68 0.8847159456000000
 6099.05 0.8851892253000000
 6099.42 0.8856980615000000
 6099.79 0.8862328224000000
 6100.16 0.8867801475000000
 6100.54 0.8873426349000000
 6100.91 0.8879016310000000
 6101.28 0.8884312020000000
 6101.65 0.8889407039000000
 6102.03 0.8894405693000000
 6102.40 0.8899343436000000
 6102.77 0.8904189955000000
 6103.14 0.8908896381000000
 6103.52 0.8913408242999999
 6103.89 0.8917710683000000
 6104.26 0.8921624379999999
 6104.63 0.8925248015000000
 6105.01 0.8928809220000000
 6105.38 0.8932322739000000
 6105.75 0.8935959598000000
 6106.12 0.8939998067000000
 6106.50 0.8944539778000000
 6106.87 0.8949348260000000
 6107.24 0.8954234421000000
 6107.62 0.8959334262000000
 6107.99 0.8964881176000000
 6108.36 0.8971324012000000
 6108.74 0.8978302215000000
 6109.11 0.8985420606000000
 6109.48 0.8992691280000000
 6109.86 0.9000160874000001
 6110.23 0.9007826101999999
 6110.60 0.9015718075000000
 6110.98 0.9023675369000000
 6111.35 0.9031621911000000
 6111.72 0.9039525470000001
 6112.10 0.9047197736000000
 6112.47 0.9054643063000000
 6112.84 0.9061837654000000
 6113.22 0.9068663777000000
 6113.59 0.9075097057000000
 6113.96 0.9080910611000000
 6114.34 0.9086213707000000
 6114.71 0.9091303794000000
 6115.09 0.9096091004000000
 6115.46 0.9100472869000000
 6115.83 0.9104693081000000
 6116.21 0.9108840636000000
 6116.58 0.9112886265000000
 6116.96 0.9116891308000000
 6117.33 0.9120871582000000
 6117.70 0.9124829363000000
 6118.08 0.9128870978000000
 6118.45 0.9132987198000000
 6118.83 0.9137209973000000
 6119.20 0.9141637944000000
 6119.58 0.9146273205000000
 6119.95 0.9150934498000000
 6120.33 0.9155716676000000
 6120.70 0.9160583822000000
 6121.07 0.9165538379000000
 6121.45 0.9170629413000000
 6121.82 0.9175743951999999
 6122.20 0.9180714179000000
 6122.57 0.9185591870000001
 6122.95 0.9190324166000000
 6123.32 0.9194773637000000
 6123.70 0.9199030158000000
 6124.07 0.9203128962000000
 6124.45 0.9207077790000000
 6124.82 0.9210888832000000
 6125.20 0.9214578269000000
 6125.57 0.9218143214000000
 6125.95 0.9221622290000000
 6126.32 0.9225017160000000
 6126.70 0.9228339941000000
 6127.08 0.9231696640000000
 6127.45 0.9235092004000000
 6127.83 0.9238553160000000
 6128.20 0.9242176991000000
 6128.58 0.9245913815000000
 6128.95 0.9249727043000000
 6129.33 0.9253636629999999
 6129.70 0.9257625507000000
 6130.08 0.9261677989000000
 6130.46 0.9266050901000000
 6130.83 0.9270669131000000
 6131.21 0.9275585537000000
 6131.58 0.9280773624000000
 6131.96 0.9286085119000000
 6132.34 0.9291478294000000
 6132.71 0.9296963961000000
 6133.09 0.9302400838000000
 6133.46 0.9307801565000000
 6133.84 0.9313135781000000
 6134.22 0.9318351273000000
 6134.59 0.9323488087000000
 6134.97 0.9328406448000000
 6135.35 0.9333013660000000
 6135.72 0.9337404886000000
 6136.10 0.9341662049000000
 6136.48 0.9345859035000000
 6136.85 0.9350058718000001
 6137.23 0.9354231662000000
 6137.61 0.9358384478000000
 6137.98 0.9362456555000001
 6138.36 0.9366376463000000
 6138.74 0.9370090523000000
 6139.11 0.9373682526000000
 6139.49 0.9377218604000001
 6139.87 0.9380673466000000
 6140.24 0.9384000652000000
 6140.62 0.9387233460000000
 6141.00 0.9390267113000000
 6141.37 0.9393075721000000
 6141.75 0.9395704204000001
 6142.13 0.9398169159999999
 6142.51 0.9400654819000001
 6142.88 0.9402698925000000
 6143.26 0.9403916762000000
 6143.64 0.9404773665000000
 6144.02 0.9405458039000000
 6144.39 0.9405856314000000
 6144.77 0.9406084670000000
 6145.15 0.9406308459000000
 6145.53 0.9406585148000000
 6145.90 0.9406822431000000
 6146.28 0.9406944193000000
 6146.66 0.9407045916000000
 6147.04 0.9407313781000000
 6147.42 0.9407763841000000
 6147.79 0.9408279815000000
 6148.17 0.9409008538000000
 6148.55 0.9410094324000000
 6148.93 0.9411286106000000
 6149.31 0.9412393133000000
 6149.68 0.9413507678000000
 6150.06 0.9414654711000000
 6150.44 0.9415937718000000
 6150.82 0.9417158272000000
 6151.20 0.9418000662000000
 6151.57 0.9418757129999999
 6151.95 0.9419246689000000
 6152.33 0.9419173476000000
 6152.71 0.9418939603000001
 6153.09 0.9418328884000000
 6153.47 0.9417431675000000
 6153.85 0.9416318188000000
 6154.22 0.9415000213000000
 6154.60 0.9413364395000000
 6154.98 0.9411669599000000
 6155.36 0.9409826924000000
 6155.74 0.9407890356000000
 6156.12 0.9406044084000000
 6156.50 0.9404327294000000
 6156.88 0.9402725438000000
 6157.26 0.9401216653000000
 6157.64 0.9399768230000000
 6158.01 0.9398706846000000
 6158.39 0.9398082156999999
 6158.77 0.9397705186999999
 6159.15 0.9397611077000000
 6159.53 0.9397663686000000
 6159.91 0.9397756171000000
 6160.29 0.9397939925000000
 6160.67 0.9398285569000000
 6161.05 0.9398639658000000
 6161.43 0.9399052967000000
 6161.81 0.9399399667000000
 6162.19 0.9399427210000000
 6162.57 0.9399211970000000
 6162.95 0.9398848527000000
 6163.33 0.9398090227000000
 6163.71 0.9396955210000000
 6164.09 0.9395757929000000
 6164.47 0.9394590440000000
 6164.85 0.9393166717000000
 6165.23 0.9391171639000000
 6165.61 0.9388519435000000
 6165.99 0.9385822992000000
 6166.37 0.9383163315000000
 6166.75 0.9380532887000000
 6167.13 0.9377952248000000
 6167.51 0.9375418266000000
 6167.89 0.9372931002000000
 6168.27 0.9370479952000000
 6168.65 0.9368065121000000
 6169.03 0.9365766271000000
 6169.41 0.9363650678000000
 6169.79 0.9361625532000000
 6170.17 0.9359671750000000
 6170.55 0.9357784121000000
 6170.93 0.9355896938000000
 6171.32 0.9353960808000000
 6171.70 0.9351992983000000
 6172.08 0.9350000931000000
 6172.46 0.9348071322000000
 6172.84 0.9346088142000000
 6173.22 0.9343788998000000
 6173.60 0.9341238612000000
 6173.98 0.9338477466000000
 6174.36 0.9335362682000000
 6174.75 0.9331952340000000
 6175.13 0.9328334010000000
 6175.51 0.9324451685000000
 6175.89 0.9320360041000000
 6176.27 0.9316110830000000
 6176.65 0.9311666511000000
 6177.03 0.9307129007000000
 6177.42 0.9302493104000000
 6177.80 0.9297800641000000
 6178.18 0.9293087082000000
 6178.56 0.9288301462000000
 6178.94 0.9283515290000000
 6179.32 0.9278755322000000
 6179.71 0.9274018050000000
 6180.09 0.9269379889000000
 6180.47 0.9264772668000000
 6180.85 0.9260189773000000
 6181.23 0.9255692339000000
 6181.62 0.9251267864000000
 6182.00 0.9246875964000000
 6182.38 0.9242415814000000
 6182.76 0.9237915976000000
 6183.14 0.9233399920000001
 6183.53 0.9228877187000000
 6183.91 0.9224307501000000
 6184.29 0.9219657306000000
 6184.67 0.9214939025000000
 6185.06 0.9210158843000000
 6185.44 0.9205283799000000
 6185.82 0.9200376750000000
 6186.20 0.9195542840000001
 6186.59 0.9190665766000000
 6186.97 0.9185836265000000
 6187.35 0.9181158527000000
 6187.74 0.9176609201000000
 6188.12 0.9172352620999999
 6188.50 0.9168533897000000
 6188.88 0.9164952152000000
 6189.27 0.9161683721000000
 6189.65 0.9158639148000000
 6190.03 0.9155804856000000
 6190.42 0.9153343409000000
 6190.80 0.9151142450999999
 6191.18 0.9149191622000000
 6191.57 0.9147454551999999
 6191.95 0.9145796807000000
 6192.33 0.9144178019000000
 6192.72 0.9142596773000000
 6193.10 0.9140882516000000
 6193.48 0.9139024320000000
 6193.87 0.9136999944999999
 6194.25 0.9134697073000000
 6194.64 0.9132117159000001
 6195.02 0.9129415309000000
 6195.40 0.9126685149000000
 6195.79 0.9123924460000000
 6196.17 0.9120975388000000
 6196.55 0.9117803309000000
 6196.94 0.9114640212000000
 6197.32 0.9111752085000000
 6197.71 0.9109057936000000
 6198.09 0.9106574844000001
 6198.48 0.9104290770000000
 6198.86 0.9102183947000000
 6199.24 0.9100344383000000
 6199.63 0.9098653155999999
 6200.01 0.9097227925000000
 6200.40 0.9096096656000000
 6200.78 0.9095130906000000
 6201.17 0.9094275165000000
 6201.55 0.9093566306000000
 6201.94 0.9092797358000000
 6202.32 0.9091720049999999
 6202.70 0.9090469504000001
 6203.09 0.9089287605000000
 6203.47 0.9088245602000000
 6203.86 0.9087117450000000
 6204.24 0.9085534005000000
 6204.63 0.9083389261000000
 6205.01 0.9081192101000000
 6205.40 0.9079165718000000
 6205.78 0.9077203036000000
 6206.17 0.9075350634000000
 6206.55 0.9073612952000000
 6206.94 0.9071896233000000
 6207.32 0.9070121013000000
 6207.71 0.9068405427000000
 6208.10 0.9066892032000000
 6208.48 0.9065547599000000
 6208.87 0.9064487176000000
 6209.25 0.9063888595000000
 6209.64 0.9063475602000000
 6210.02 0.9063183329000000
 6210.41 0.9063155057000000
 6210.79 0.9063189448000000
 6211.18 0.9063353772000000
 6211.57 0.9063946443000001
 6211.95 0.9064403365000000
 6212.34 0.9064778735000000
 6212.72 0.9065091328000000
 6213.11 0.9065172755999999
 6213.50 0.9065113842000000
 6213.88 0.9064876800000000
 6214.27 0.9064386813999999
 6214.65 0.9063660847000000
 6215.04 0.9062731047000000
 6215.43 0.9061410556000000
 6215.81 0.9059733871000000
 6216.20 0.9057828182000000
 6216.59 0.9055574933000000
 6216.97 0.9053184835000000
 6217.36 0.9050743424000000
 6217.75 0.9048238164000000
 6218.13 0.9045668895000000
 6218.52 0.9042959502000000
 6218.91 0.9040454234999999
 6219.29 0.9038474265999999
 6219.68 0.9036786291000000
 6220.07 0.9035115798000000
 6220.45 0.9033407122000000
 6220.84 0.9031760484000000
 6221.23 0.9030314010000000
 6221.61 0.9028982333000000
 6222.00 0.9027927300000000
 6222.39 0.9027021224000000
 6222.78 0.9025934175000000
 6223.16 0.9024734030000000
 6223.55 0.9023379728000001
 6223.94 0.9021892175000000
 6224.32 0.9020250045000000
 6224.71 0.9018462113000000
 6225.10 0.9016648346000000
 6225.49 0.9014597454000000
 6225.87 0.9012277805000000
 6226.26 0.9009523149000001
 6226.65 0.9006263134000000
 6227.04 0.9002945664000001
 6227.43 0.8999643765999999
 6227.81 0.8996355053000000
 6228.20 0.8993253156000000
 6228.59 0.8990351975999999
 6228.98 0.8987726560000000
 6229.37 0.8985340246000000
 6229.75 0.8983162201000000
 6230.14 0.8981473188000000
 6230.53 0.8980212942000000
 6230.92 0.8979033641000000
 6231.31 0.8978565898999999
 6231.69 0.8978286682000000
 6232.08 0.8978231457000000
 6232.47 0.8978614561000000
 6232.86 0.8979086187999999
 6233.25 0.8979799341000000
 6233.64 0.8980747046000001
 6234.03 0.8981650270000000
 6234.41 0.8982459509000000
 6234.80 0.8983204774000000
 6235.19 0.8983883818000000
 6235.58 0.8984521361000000
 6235.97 0.8985053900000000
 6236.36 0.8985480750000000
 6236.75 0.8985831277000000
 6237.14 0.8986020107000000
 6237.52 0.8985993342000000
 6237.91 0.8985962893000000
 6238.30 0.8985962724000000
 6238.69 0.8985971174000000
 6239.08 0.8986045560000000
 6239.47 0.8986464440000000
 6239.86 0.8987064518000000
 6240.25 0.8988105383000000
 6240.64 0.8989932910000000
 6241.03 0.8992044030000000
 6241.42 0.8994388772000000
 6241.81 0.8997024950000000
 6242.20 0.8999762398000000
 6242.59 0.9002766347000000
 6242.98 0.9006061990000001
 6243.37 0.9009672912000000
 6243.76 0.9013489308000000
 6244.15 0.9017288526000000
 6244.54 0.9021140271000000
 6244.93 0.9024858641000000
 6245.32 0.9028274238000000
 6245.71 0.9031414432000000
 6246.10 0.9034154472000000
 6246.49 0.9036636332000000
 6246.88 0.9038971725000000
 6247.27 0.9041188445000000
 6247.66 0.9043246993000000
 6248.05 0.9045109669000000
 6248.44 0.9046740614000000
 6248.83 0.9048306501000000
 6249.22 0.9049949153000000
 6249.61 0.9051625522000000
 6250.00 0.9053437771000000
 6250.39 0.9055499886000000
 6250.78 0.9057732524000000
 6251.17 0.9060002042999999
 6251.56 0.9062338548000000
 6251.95 0.9064703045000000
 6252.34 0.9067062332000000
 6252.74 0.9069432923000000
 6253.13 0.9071860423000000
 6253.52 0.9074386221000000
 6253.91 0.9076883963000000
 6254.30 0.9079215219000000
 6254.69 0.9081404977000000
 6255.08 0.9083467392000000
 6255.47 0.9085395326000000
 6255.86 0.9087225051000000
 6256.26 0.9088755393000000
 6256.65 0.9090052888000000
 6257.04 0.9091157855000001
 6257.43 0.9092067651000000
 6257.82 0.9092863642000000
 6258.21 0.9093595676000000
 6258.61 0.9094265770000000
 6259.00 0.9094880436000000
 6259.39 0.9095445088000000
 6259.78 0.9095968006000000
 6260.17 0.9096406302000000
 6260.56 0.9096676258000000
 6260.96 0.9097045113000000
 6261.35 0.9098083141000000
 6261.74 0.9099885538000000
 6262.13 0.9101736854000000
 6262.53 0.9103707870000000
 6262.92 0.9105845463000000
 6263.31 0.9108366746000000
 6263.70 0.9111099365000001
 6264.09 0.9113888318000000
 6264.49 0.9116752452000000
 6264.88 0.9119584408000000
 6265.27 0.9122288184000000
 6265.66 0.9124899659000000
 6266.06 0.9127323322999999
 6266.45 0.9129571054000000
 6266.84 0.9131643447000000
 6267.23 0.9133534974999999
 6267.63 0.9135308422000000
 6268.02 0.9136695037000000
 6268.41 0.9137639947000000
 6268.81 0.9138419235000000
 6269.20 0.9139131624000000
 6269.59 0.9139834764000000
 6269.99 0.9140461853000000
 6270.38 0.9140952194999999
 6270.77 0.9141413924000000
 6271.17 0.9141988740000000
 6271.56 0.9142733533000000
 6271.95 0.9143586691000000
 6272.35 0.9144616715000000
 6272.74 0.9145794308000000
 6273.13 0.9147148487000000
 6273.53 0.9148798878000000
 6273.92 0.9150639129000000
 6274.31 0.9152647205000000
 6274.71 0.9154802966000000
 6275.10 0.9157048175000000
 6275.49 0.9159435366000001
 6275.89 0.9161840650999999
 6276.28 0.9164113628000000
 6276.68 0.9166311490000000
 6277.07 0.9168493800000000
 6277.46 0.9170673807000000
 6277.86 0.9172793305000000
 6278.25 0.9174816445000000
 6278.65 0.9176800859000001
 6279.04 0.9178806719000000
 6279.43 0.9180830677000000
 6279.83 0.9182899764000000
 6280.22 0.9185110444000000
 6280.62 0.9187490541000000
 6281.01 0.9190009904999999
 6281.41 0.9192712973000000
 6281.80 0.9195558274000000
 6282.20 0.9198535167000000
 6282.59 0.9201630248000000
 6282.99 0.9205002370000001
 6283.38 0.9208910377000000
 6283.78 0.9213189632000000
 6284.17 0.9217464608000000
 6284.57 0.9221765565000000
 6284.96 0.9226155702000000
 6285.36 0.9230688294000000
 6285.75 0.9235327377000000
 6286.15 0.9239994230000000
 6286.54 0.9244651805000000
 6286.94 0.9249254339000000
 6287.33 0.9253716923999999
 6287.73 0.9258081649000000
 6288.12 0.9262339737000000
 6288.52 0.9266478976000000
 6288.91 0.9270546091000000
 6289.31 0.9274518376000001
 6289.70 0.9278434827000001
 6290.10 0.9282272378999999
 6290.50 0.9286010792000000
 6290.89 0.9289652333000000
 6291.29 0.9293269987000000
 6291.68 0.9296895786000000
 6292.08 0.9300528377000000
 6292.47 0.9304144066000000
 6292.87 0.9307799696000000
 6293.27 0.9311561287000000
 6293.66 0.9315411946000000
 6294.06 0.9319369736000001
 6294.45 0.9323466508000000
 6294.85 0.9327653286000001
 6295.25 0.9331881811000000
 6295.64 0.9336137029000000
 6296.04 0.9340347683000000
 6296.44 0.9344437366000000
 6296.83 0.9348480625000000
 6297.23 0.9352565360000000
 6297.63 0.9356615280000000
 6298.02 0.9360441059000000
 6298.42 0.9363903240000000
 6298.82 0.9367256436000000
 6299.21 0.9370805243000000
 6299.61 0.9374490630000000
 6300.01 0.9378269010000000
 6300.40 0.9382255909000000
 6300.80 0.9386409907000000
 6301.20 0.9390838747000000
 6301.59 0.9395502399000000
 6301.99 0.9400454014000000
 6302.39 0.9405818779000000
 6302.79 0.9411514449000000
 6303.18 0.9417371385000000
 6303.58 0.9423472164000000
 6303.98 0.9429569448000000
 6304.38 0.9435480078000000
 6304.77 0.9441478328000000
 6305.17 0.9447681338000000
 6305.57 0.9454191315000000
 6305.97 0.9460500528000000
 6306.36 0.9466200366999999
 6306.76 0.9471473905000000
 6307.16 0.9476394538000000
 6307.56 0.9481048066000000
 6307.95 0.9485475273000000
 6308.35 0.9489407643000000
 6308.75 0.9492937811000000
 6309.15 0.9495990147000000
 6309.55 0.9498639414000000
 6309.94 0.9501004450000000
 6310.34 0.9503134977000000
 6310.74 0.9505058679000000
 6311.14 0.9506780972000000
 6311.54 0.9508330269000000
 6311.94 0.9509737144000000
 6312.33 0.9510982271000000
 6312.73 0.9512123891000001
 6313.13 0.9513389821000000
 6313.53 0.9514818325000000
 6313.93 0.9516285919000000
 6314.33 0.9517716335000000
 6314.73 0.9519137398000000
 6315.12 0.9520651952000000
 6315.52 0.9522186879000000
 6315.92 0.9523754978000000
 6316.32 0.9525465384000000
 6316.72 0.9527304918000000
 6317.12 0.9529282046000001
 6317.52 0.9531168605000000
 6317.92 0.9532989926000000
 6318.32 0.9534743238000000
 6318.72 0.9536437954000000
 6319.12 0.9538136095999999
 6319.51 0.9539954084000000
 6319.91 0.9541547339000001
 6320.31 0.9542620092000000
 6320.71 0.9543457257000000
 6321.11 0.9544337496000000
 6321.51 0.9545433271000000
 6321.91 0.9546255298000000
 6322.31 0.9546490424000000
 6322.71 0.9546404745000000
 6323.11 0.9546187124000000
 6323.51 0.9545784167000000
 6323.91 0.9545291592000000
 6324.31 0.9544476626000000
 6324.71 0.9543337360000000
 6325.11 0.9542058226000000
 6325.51 0.9540561252000000
 6325.91 0.9538964194000000
 6326.31 0.9537110818000000
 6326.71 0.9535058928000000
 6327.11 0.9532993966000000
 6327.51 0.9530944186000000
 6327.91 0.9528838754000000
 6328.31 0.9526601768000000
 6328.71 0.9524272698000000
 6329.11 0.9522048083000000
 6329.51 0.9519968294000000
 6329.92 0.9517908728000000
 6330.32 0.9515784494000000
 6330.72 0.9513629302000000
 6331.12 0.9511449592000000
 6331.52 0.9509246379000000
 6331.92 0.9507034599999999
 6332.32 0.9504806075000000
 6332.72 0.9502575263000000
 6333.12 0.9500366697000000
 6333.52 0.9498170925000000
 6333.92 0.9496016657000000
 6334.33 0.9493954855000000
 6334.73 0.9491972890000000
 6335.13 0.9490157133000000
 6335.53 0.9488531887000000
 6335.93 0.9486978671000000
 6336.33 0.9485429531000000
 6336.73 0.9483910858000000
 6337.14 0.9482414124000000
 6337.54 0.9480953078000000
 6337.94 0.9479478790000000
 6338.34 0.9477948507000000
 6338.74 0.9476381540000000
 6339.14 0.9474786639000000
 6339.55 0.9473127280000000
 6339.95 0.9471464553000000
 6340.35 0.9469891231999999
 6340.75 0.9468329371000000
 6341.15 0.9466802722000000
 6341.56 0.9465309007000000
 6341.96 0.9463600532000001
 6342.36 0.9461720513000000
 6342.76 0.9459794041000000
 6343.17 0.9458137872000000
 6343.57 0.9456693598000000
 6343.97 0.9455260249000000
 6344.37 0.9453777437999999
 6344.78 0.9452285030000001
 6345.18 0.9450833633000000
 6345.58 0.9449411602000000
 6345.98 0.9448043573000000
 6346.39 0.9446744880000000
 6346.79 0.9445501125000000
 6347.19 0.9444308516000000
 6347.59 0.9443164291000000
 6348.00 0.9442064006999999
 6348.40 0.9440996797000000
 6348.80 0.9439973481000000
 6349.21 0.9439015084000000
 6349.61 0.9438207913000000
 6350.01 0.9437541471999999
 6350.42 0.9436882742000000
 6350.82 0.9435981684000000
 6351.22 0.9435323981000000
 6351.63 0.9434829693000000
 6352.03 0.9434895317999999
 6352.43 0.9435800548000000
 6352.84 0.9437000513000000
 6353.24 0.9438496393000000
 6353.64 0.9440460923000000
 6354.05 0.9442720952000000
 6354.45 0.9445399289999999
 6354.86 0.9448373224000000
 6355.26 0.9451713657000000
 6355.66 0.9455317980000000
 6356.07 0.9459035299000000
 6356.47 0.9462831929000000
 6356.87 0.9466757765000000
 6357.28 0.9470879688000000
 6357.68 0.9475185702000000
 6358.09 0.9479406549000000
 6358.49 0.9483472871000000
 6358.90 0.9487478992000000
 6359.30 0.9491025253000001
 6359.70 0.9494051214000000
 6360.11 0.9496569564000000
 6360.51 0.9498628492000000
 6360.92 0.9500299462000000
 6361.32 0.9500559431000000
 6361.73 0.9500625059000000
 6362.13 0.9500475881000000
 6362.54 0.9499015999000000
 6362.94 0.9496954268000000
 6363.35 0.9494694141000000
 6363.75 0.9492232543000000
 6364.16 0.9489401327000000
 6364.56 0.9485990868000000
 6364.97 0.9482545104000000
 6365.37 0.9479340952999999
 6365.78 0.9476298802000001
 6366.18 0.9473673288000000
 6366.59 0.9471274105000000
 6366.99 0.9469489381000000
 6367.40 0.9468423712000000
 6367.80 0.9467625193000000
 6368.21 0.9467536738000000
 6368.62 0.9468889425000000
 6369.02 0.9470925848000000
 6369.43 0.9472994640000000
 6369.83 0.9475903930000000
 6370.24 0.9480065161000000
 6370.64 0.9484716627000001
 6371.05 0.9489769311000000
 6371.46 0.9495286484000000
 6371.86 0.9501015994999999
 6372.27 0.9506661703000000
 6372.67 0.9512305778000000
 6373.08 0.9517935610000000
 6373.49 0.9523649494999999
 6373.89 0.9529190454000001
 6374.30 0.9534280581000000
 6374.71 0.9539055378000000
 6375.11 0.9543543375000000
 6375.52 0.9547769285000000
 6375.92 0.9551755401000001
 6376.33 0.9555506323000000
 6376.74 0.9559030551000000
 6377.14 0.9562311367000000
 6377.55 0.9565538934000000
 6377.96 0.9568764256000000
 6378.36 0.9571956686000000
 6378.77 0.9575154405000000
 6379.18 0.9578689577000000
 6379.59 0.9582773091000000
 6379.99 0.9586956910000000
 6380.40 0.9590946764000000
 6380.81 0.9595002434000000
 6381.21 0.9599480566000000
 6381.62 0.9604418177000000
 6382.03 0.9609428260000000
 6382.44 0.9614429448000000
 6382.84 0.9619400379000000
 6383.25 0.9624175207000000
 6383.66 0.9628805414000000
 6384.07 0.9633227237000000
 6384.47 0.9637493523000000
 6384.88 0.9641494050000000
 6385.29 0.9645043235000000
 6385.70 0.9648265817000000
 6386.10 0.9651366928000000
 6386.51 0.9653008851000000
 6386.92 0.9654272967000000
 6387.33 0.9655728115000000
 6387.74 0.9657581647000000
 6388.14 0.9659892700000000
 6388.55 0.9662533310000000
 6388.96 0.9665479820000000
 6389.37 0.9668745063999999
 6389.78 0.9672396103000001
 6390.18 0.9676457683000000
 6390.59 0.9681016180000001
 6391.00 0.9686123890000000
 6391.41 0.9692018988000000
 6391.82 0.9698561359000000
 6392.23 0.9705364638000000
 6392.64 0.9712571764000000
 6393.04 0.9719789180000000
 6393.45 0.9726969419000000
 6393.86 0.9733954263000000
 6394.27 0.9740220720000000
 6394.68 0.9746054251000000
 6395.09 0.9751223158000000
 6395.50 0.9755025038000000
 6395.91 0.9758499702000000
 6396.32 0.9761090884000000
 6396.72 0.9762812756000000
 6397.13 0.9764054756000000
 6397.54 0.9765146699000000
 6397.95 0.9765802569000001
 6398.36 0.9765968401000000
 6398.77 0.9766061286000000
 6399.18 0.9766031640000000
 6399.59 0.9765725539000000
 6400.00 0.9765426219000000
 6400.41 0.9765246754000000
 6400.82 0.9765120146000000
 6401.23 0.9765128748000000
 6401.64 0.9765261273000000
 6402.05 0.9765495016000000
 6402.46 0.9765860745000000
 6402.87 0.9766360376000000
 6403.28 0.9767169070000000
 6403.69 0.9768454784000000
 6404.10 0.9769857354000000
 6404.51 0.9771304893000000
 6404.92 0.9772994309000000
 6405.33 0.9774934303000000
 6405.74 0.9777110433000000
 6406.15 0.9779511156000000
 6406.56 0.9782122719000000
 6406.97 0.9784891085000000
 6407.38 0.9787795663000000
 6407.79 0.9790864014000000
 6408.20 0.9794110853000000
 6408.61 0.9797560680000000
 6409.02 0.9801164174000000
 6409.43 0.9804945733000000
 6409.85 0.9808886601000000
 6410.26 0.9813032841000000
 6410.67 0.9817319651999999
 6411.08 0.9821793269000000
 6411.49 0.9826497975000000
 6411.90 0.9831381350000000
 6412.31 0.9836410958000000
 6412.72 0.9841599154000000
 6413.13 0.9846870773000000
 6413.55 0.9852238510000000
 6413.96 0.9857704973000000
 6414.37 0.9863226721000000
 6414.78 0.9868774523000000
 6415.19 0.9874333004000000
 6415.60 0.9879919468000000
 6416.01 0.9885387601000000
 6416.43 0.9890671542000000
 6416.84 0.9895822850000000
 6417.25 0.9900845206000000
 6417.66 0.9905729872000000
 6418.07 0.9910492509000000
 6418.49 0.9915159213000000
 6418.90 0.9919747162000000
 6419.31 0.9924211031000000
 6419.72 0.9928582994000000
 6420.13 0.9933034748000000
 6420.55 0.9937577947000000
 6420.96 0.9942184790000000
 6421.37 0.9946866559999999
 6421.78 0.9951606609000000
 6422.20 0.9956351357000000
 6422.61 0.9961075246000000
 6423.02 0.9965862152000000
 6423.43 0.9970690094000000
 6423.85 0.9974697767000000
 6424.26 0.9978495345000000
 6424.67 0.9982188789999999
 6425.08 0.9985689769000000
 6425.50 0.9988958393000000
 6425.91 0.9991888026000000
 6426.32 0.9994377732000000
 6426.74 0.9996570491000000
 6427.15 0.9998113960000000
 6427.56 0.9999380723000000
 6427.97 0.9999997513000000
 6428.39 0.9999970942999999
 6428.80 0.9999882610000000
 6429.21 0.9999613563999999
 6429.63 0.9998634184000000
 6430.04 0.9997323007000000
 6430.45 0.9995503277000000
 6430.87 0.9993306394000000
 6431.28 0.9991202777000000
 6431.70 0.9989207825000000
 6432.11 0.9987217674000000
 6432.52 0.9985151990000000
 6432.94 0.9983231614000000
 6433.35 0.9981682743000000
 6433.76 0.9980308751000000
 6434.18 0.9979004821000000
 6434.59 0.9977714451000000
 6435.01 0.9976410613000000
 6435.42 0.9975084845000000
 6435.83 0.9973730740000000
 6436.25 0.9972334148999999
 6436.66 0.9970900119000000
 6437.08 0.9969315052000000
 6437.49 0.9967572075000000
 6437.91 0.9965552985000000
 6438.32 0.9962966658000000
 6438.74 0.9959808415000000
 6439.15 0.9956623095000000
 6439.56 0.9953476723000000
 6439.98 0.9950032196000000
 6440.39 0.9945850000000001
 6440.81 0.9941184485000000
 6441.22 0.9936541008000001
 6441.64 0.9931759881000000
 6442.05 0.9926513383000000
 6442.47 0.9920853666000000
 6442.88 0.9914968463000000
 6443.30 0.9908934964000000
 6443.71 0.9902742080000000
 6444.13 0.9896708979000000
 6444.54 0.9890807163999999
 6444.96 0.9885151417000000
 6445.38 0.9879834138000000
 6445.79 0.9874797167000000
 6446.21 0.9870066183000000
 6446.62 0.9865571345000000
 6447.04 0.9861548208000001
 6447.45 0.9858042934000000
 6447.87 0.9854886092000000
 6448.28 0.9851972640000000
 6448.70 0.9849289501000000
 6449.12 0.9846900009000000
 6449.53 0.9844848972000000
 6449.95 0.9842989254000000
 6450.36 0.9841296450000000
 6450.78 0.9839956276000000
 6451.20 0.9839168189000000
 6451.61 0.9838540041000000
 6452.03 0.9838111783000000
 6452.45 0.9837893500000000
 6452.86 0.9837713351000000
 6453.28 0.9837427179000000
 6453.69 0.9837050251000000
 6454.11 0.9836710087000000
 6454.53 0.9836436106999999
 6454.94 0.9836149038000001
 6455.36 0.9835802685000000
 6455.78 0.9835396963000000
 6456.19 0.9834881071000000
 6456.61 0.9834194565000000
 6457.03 0.9833450838000000
 6457.45 0.9832689399000000
 6457.86 0.9831833555000000
 6458.28 0.9830721882000000
 6458.70 0.9829365419000000
 6459.11 0.9827781060000000
 6459.53 0.9825901523000000
 6459.95 0.9823722526000001
 6460.37 0.9821303099000001
 6460.78 0.9818804415000000
 6461.20 0.9816026502000000
 6461.62 0.9812926774000000
 6462.04 0.9809681593000000
 6462.45 0.9806343479000000
 6462.87 0.9802869847000000
 6463.29 0.9799251690000000
 6463.71 0.9795482672000000
 6464.12 0.9791603338000000
 6464.54 0.9787595066000000
 6464.96 0.9783508060000000
 6465.38 0.9779371781000000
 6465.80 0.9775186829000000
 6466.21 0.9770940243000000
 6466.63 0.9766624286000000
 6467.05 0.9762269904999999
 6467.47 0.9757877963000000
 6467.89 0.9753452094000000
 6468.31 0.9748843993000000
 6468.72 0.9744047352000000
 6469.14 0.9739082319000000
 6469.56 0.9733884437000000
 6469.98 0.9728488449000000
 6470.40 0.9722758605000000
 6470.82 0.9716814788000000
 6471.24 0.9710698345000000
 6471.65 0.9704380142000000
 6472.07 0.9698042690000001
 6472.49 0.9691705066000000
 6472.91 0.9685400930000000
 6473.33 0.9679202480000000
 6473.75 0.9673128567000000
 6474.17 0.9667286393000000
 6474.59 0.9661591864000000
 6475.01 0.9656273995000000
 6475.43 0.9651428363000000
 6475.85 0.9646953377000000
 6476.26 0.9642828644000000
 6476.68 0.9639001296000000
 6477.10 0.9635686801000000
 6477.52 0.9632894283000000
 6477.94 0.9630326619000000
 6478.36 0.9627887075000000
 6478.78 0.9625534636999999
 6479.20 0.9623077461000000
 6479.62 0.9620494162000000
 6480.04 0.9617796235000000
 6480.46 0.9614960712000000
 6480.88 0.9611990340000000
 6481.30 0.9608858219000000
 6481.72 0.9605550260000000
 6482.14 0.9602013122000000
 6482.56 0.9598194579000000
 6482.98 0.9594276631000000
 6483.40 0.9590343681000000
 6483.82 0.9586338695000000
 6484.24 0.9582193954000000
 6484.66 0.9577904434000000
 6485.08 0.9573693092000000
 6485.50 0.9569605055000000
 6485.93 0.9565596429000000
 6486.35 0.9561696148000000
 6486.77 0.9557873126000000
 6487.19 0.9554267104000000
 6487.61 0.9550946601000000
 6488.03 0.9547793310000000
 6488.45 0.9544808053000000
 6488.87 0.9542034797000000
 6489.29 0.9539473523000001
 6489.71 0.9537047467999999
 6490.13 0.9534676075000000
 6490.56 0.9532305532999999
 6490.98 0.9529937724000000
 6491.40 0.9527640384000000
 6491.82 0.9525309291000000
 6492.24 0.9522696929000000
 6492.66 0.9519801809000000
 6493.08 0.9516778169000000
 6493.51 0.9513689829000000
 6493.93 0.9510386379000000
 6494.35 0.9506706882000000
 6494.77 0.9502682971999999
 6495.19 0.9498396762000000
 6495.62 0.9493788513000000
 6496.04 0.9489010663000000
 6496.46 0.9484080090000000
 6496.88 0.9478622185000000
 6497.30 0.9472505380000000
 6497.73 0.9465922843000000
 6498.15 0.9459288179000001
 6498.57 0.9452345208000000
 6498.99 0.9445180243000000
 6499.42 0.9437749504000000
 6499.84 0.9430108998000000
 6500.26 0.9422346351000001
 6500.68 0.9414437421000000
 6501.11 0.9406439535000000
 6501.53 0.9398337984000000
 6501.95 0.9390194672000000
 6502.37 0.9382048453000000
 6502.80 0.9373906326000000
 6503.22 0.9365853079000001
 6503.64 0.9357866046000000
 6504.07 0.9350047882000000
 6504.49 0.9342446921000001
 6504.91 0.9335034625999999
 6505.33 0.9327858250000000
 6505.76 0.9320745974000000
 6506.18 0.9313593964000000
 6506.60 0.9306430375000000
 6507.03 0.9299271612000000
 6507.45 0.9292134819000000
 6507.87 0.9285014257000000
 6508.30 0.9277876705000000
 6508.72 0.9270733682000000
 6509.15 0.9263751099000000
 6509.57 0.9256933461000000
 6509.99 0.9250251811000000
 6510.42 0.9243695307999999
 6510.84 0.9237271471000000
 6511.26 0.9230953497000000
 6511.69 0.9224737709000000
 6512.11 0.9218967462000000
 6512.54 0.9213650901000000
 6512.96 0.9208688180000000
 6513.39 0.9203921601000000
 6513.81 0.9199522583999999
 6514.23 0.9196118213000000
 6514.66 0.9193478725999999
 6515.08 0.9191118483000000
 6515.51 0.9189629947000000
 6515.93 0.9188810837000000
 6516.36 0.9189110531000000
 6516.78 0.9190053022000000
 6517.21 0.9191381337000000
 6517.63 0.9193351547000000
 6518.06 0.9195790822000000
 6518.48 0.9198937868000000
 6518.90 0.9202592205000000
 6519.33 0.9206510332000000
 6519.75 0.9210795750000000
 6520.18 0.9215216201999999
 6520.61 0.9219830443000000
 6521.03 0.9224426587000000
 6521.46 0.9228933896000000
 6521.88 0.9233345426000000
 6522.31 0.9237573158000000
 6522.73 0.9241526278000000
 6523.16 0.9244974179000000
 6523.58 0.9247779142000000
 6524.01 0.9250016556000000
 6524.43 0.9251902056000000
 6524.86 0.9253516694000000
 6525.29 0.9254999260000000
 6525.71 0.9256390116000000
 6526.14 0.9257703233000000
 6526.56 0.9258922585000000
 6526.99 0.9260250110000000
 6527.42 0.9261767464000000
 6527.84 0.9263413511000000
 6528.27 0.9265185140000000
 6528.69 0.9267103573000000
 6529.12 0.9269249519000000
 6529.55 0.9271717483000000
 6529.97 0.9274374688000000
 6530.40 0.9277161090000000
 6530.83 0.9280080904000000
 6531.25 0.9283114139000000
 6531.68 0.9286211601000000
 6532.11 0.9289341181000000
 6532.53 0.9292518606000000
 6532.96 0.9295669173000000
 6533.39 0.9298701752000000
 6533.81 0.9301715768000000
 6534.24 0.9304739735999999
 6534.67 0.9307754875000001
 6535.09 0.9310736207000000
 6535.52 0.9313748330000000
 6535.95 0.9316585793000000
 6536.37 0.9319003912000000
 6536.80 0.9321350802000000
 6537.23 0.9323700912000000
 6537.66 0.9326062690000000
 6538.08 0.9328373461000000
 6538.51 0.9330631986000000
 6538.94 0.9332819109000000
 6539.37 0.9334858045000000
 6539.79 0.9336838406000000
 6540.22 0.9338847893000000
 6540.65 0.9340876927000000
 6541.08 0.9342984912000000
 6541.51 0.9345243277000000
 6541.93 0.9347501789000000
 6542.36 0.9349598799000000
 6542.79 0.9351627922000000
 6543.22 0.9353842394000000
 6543.65 0.9356349379000000
 6544.07 0.9358936750000000
 6544.50 0.9361531408000000
 6544.93 0.9364202173000000
 6545.36 0.9367013882000000
 6545.79 0.9369935702000000
 6546.22 0.9372932197000000
 6546.64 0.9375976255000000
 6547.07 0.9379022892000000
 6547.50 0.9382070227000000
 6547.93 0.9385139544000000
 6548.36 0.9388255329000000
 6548.79 0.9391407418000000
 6549.22 0.9394593292000000
 6549.65 0.9397813384000000
 6550.08 0.9401071725000000
 6550.50 0.9404351022000000
 6550.93 0.9407703922000000
 6551.36 0.9411204987000000
 6551.79 0.9414822504000000
 6552.22 0.9418513160999999
 6552.65 0.9422279338000000
 6553.08 0.9426275673000000
 6553.51 0.9430615346000000
 6553.94 0.9435167191000000
 6554.37 0.9439889406000000
 6554.80 0.9444782222000000
 6555.23 0.9449733967000000
 6555.66 0.9454792447000000
 6556.09 0.9460086198000000
 6556.52 0.9465777860000000
 6556.95 0.9471631270999999
 6557.38 0.9477480967000000
 6557.81 0.9483421501000000
 6558.24 0.9489577546000000
 6558.67 0.9495952670000000
 6559.10 0.9502349970000000
 6559.53 0.9508723083000000
 6559.96 0.9515132996000000
 6560.39 0.9521613769000000
 6560.82 0.9528137792000000
 6561.25 0.9534656383000000
 6561.68 0.9541138642000000
 6562.11 0.9547657598000000
 6562.54 0.9554220992000000
 6562.97 0.9560802382000000
 6563.40 0.9567406553000000
 6563.83 0.9574024251000000
 6564.26 0.9580649046000000
 6564.70 0.9587292439000000
 6565.13 0.9593947195000000
 6565.56 0.9600620190000000
 6565.99 0.9607312043000000
 6566.42 0.9614033126000000
 6566.85 0.9620775378000000
 6567.28 0.9627532468000000
 6567.71 0.9634305974000000
 6568.14 0.9641099608000000
 6568.58 0.9647914707000000
 6569.01 0.9654746491000000
 6569.44 0.9661593073000000
 6569.87 0.9668454741000000
 6570.30 0.9675334144000000
 6570.73 0.9682222928999999
 6571.17 0.9689085374000000
 6571.60 0.9695865631000000
 6572.03 0.9702600855000000
 6572.46 0.9709364168000000
 6572.89 0.9716038171000000
 6573.33 0.9722321164000000
 6573.76 0.9728347703000000
 6574.19 0.9734384134000000
 6574.62 0.9740449737000000
 6575.05 0.9746309405000000
 6575.49 0.9751759536000000
 6575.92 0.9757024769000000
 6576.35 0.9762081251000000
 6576.78 0.9766952399000000
 6577.22 0.9771660937000000
 6577.65 0.9776235634000000
 6578.08 0.9780476881000000
 6578.51 0.9784307932000000
 6578.95 0.9787967400000001
 6579.38 0.9791658666000000
 6579.81 0.9795256916000000
 6580.25 0.9798526663000000
 6580.68 0.9801507422000000
 6581.11 0.9804525587000000
 6581.55 0.9807626626000000
 6581.98 0.9810701252000000
 6582.41 0.9813705880000000
 6582.85 0.9816641280000000
 6583.28 0.9819457667000000
 6583.71 0.9822171847000000
 6584.15 0.9824756616000000
 6584.58 0.9827197078000000
 6585.01 0.9829410514000000
 6585.45 0.9831574670000000
 6585.88 0.9833613139000000
 6586.31 0.9835355779000000
 6586.75 0.9836892491000000
 6587.18 0.9838190096000000
 6587.62 0.9839440887999999
 6588.05 0.9839938233000000
 6588.48 0.9839510316000000
 6588.92 0.9838761633999999
 6589.35 0.9837633103000000
 6589.79 0.9836064254000000
 6590.22 0.9833553881000000
 6590.65 0.9829921343000000
 6591.09 0.9825443352000000
 6591.52 0.9820516708000000
 6591.96 0.9815130871000000
 6592.39 0.9809351024000000
 6592.83 0.9803000771000000
 6593.26 0.9795640066000000
 6593.70 0.9787138115000000
 6594.13 0.9778681550000000
 6594.57 0.9770286969999999
 6595.00 0.9761249368000000
 6595.44 0.9750576472000000
 6595.87 0.9739031551000000
 6596.31 0.9727554778000000
 6596.74 0.9715879815000000
 6597.18 0.9703704952000000
 6597.61 0.9690817117000000
 6598.05 0.9677486187000000
 6598.48 0.9663735959000000
 6598.92 0.9649695581000000
 6599.35 0.9635393929000000
 6599.79 0.9620766353000000
 6600.22 0.9605581855000001
 6600.66 0.9589765338000000
 6601.10 0.9573795772000000
 6601.53 0.9557732480000000
 6601.97 0.9541561583000000
 6602.40 0.9525306508000000
 6602.84 0.9508977565000000
 6603.28 0.9492624255000000
 6603.71 0.9476238389000000
 6604.15 0.9459922984000000
 6604.58 0.9443630638000000
 6605.02 0.9427144974000000
 6605.46 0.9410216671000000
 6605.89 0.9392955269000000
 6606.33 0.9375162121000000
 6606.77 0.9356988619000000
 6607.20 0.9338436247000000
 6607.64 0.9319498818000000
 6608.08 0.9300111906000000
 6608.51 0.9280122390000000
 6608.95 0.9259890577000000
 6609.39 0.9239712571000001
 6609.82 0.9219392926000000
 6610.26 0.9198611382000000
 6610.70 0.9177403401999999
 6611.13 0.9155982842000000
 6611.57 0.9132538264000000
 6612.01 0.9114586861000000
 6612.44 0.9106011061000000
 6612.88 0.9098326319000000
 6613.32 0.9082013390000000
 6613.76 0.9055438185000000
 6614.19 0.9024959905000000
 6614.63 0.8987000487000000
 6615.07 0.8950847164000000
 6615.51 0.8919962751000000
 6615.94 0.8889995487000000
 6616.38 0.8858304620000000
 6616.82 0.8825892907000000
 6617.26 0.8792850108000000
 6617.70 0.8759141189000000
 6618.13 0.8724915413000000
 6618.57 0.8690012445000000
 6619.01 0.8654561092000000
 6619.45 0.8618704476000000
 6619.89 0.8582560420000001
 6620.32 0.8546050984000000
 6620.76 0.8509210655000000
 6621.20 0.8472189127000000
 6621.64 0.8434987072000000
 6622.08 0.8397512466000000
 6622.52 0.8359666390000000
 6622.96 0.8321425673000000
 6623.39 0.8282638949000000
 6623.83 0.8243442520000001
 6624.27 0.8203640411999999
 6624.71 0.8163501747000000
 6625.15 0.8122761797000000
 6625.59 0.8081368605000000
 6626.03 0.8039399310999999
 6626.47 0.7996904387000000
 6626.91 0.7953755265000000
 6627.34 0.7909765801000000
 6627.78 0.7864997932000000
 6628.22 0.7819433307000000
 6628.66 0.7772685853000000
 6629.10 0.7724832456000000
 6629.54 0.7675965296000000
 6629.98 0.7626187376000000
 6630.42 0.7575330016000000
 6630.86 0.7523520149000000
 6631.30 0.7470893666000000
 6631.74 0.7417432213000000
 6632.18 0.7363603385000000
 6632.62 0.7309358638000000
 6633.06 0.7254939168000000
 6633.50 0.7200414989000000
 6633.94 0.7145830153000000
 6634.38 0.7090924418000000
 6634.82 0.7035717178999999
 6635.26 0.6980275970000001
 6635.70 0.6924587691000000
 6636.14 0.6868951143000001
 6636.58 0.6813350020000000
 6637.02 0.6757952829000000
 6637.46 0.6702911810000000
 6637.90 0.6648114228000001
 6638.34 0.6593566053000000
 6638.78 0.6539103418000000
 6639.22 0.6484488874000000
 6639.67 0.6429705283000000
 6640.11 0.6374835882000000
 6640.55 0.6319934109999999
 6640.99 0.6264973002000001
 6641.43 0.6209963506000000
 6641.87 0.6154851308000000
 6642.31 0.6099533893000000
 6642.75 0.6044029086000000
 6643.19 0.5988265625000000
 6643.64 0.5932218762000000
 6644.08 0.5875920016000000
 6644.52 0.5819368944000000
 6644.96 0.5762624066000001
 6645.40 0.5705638599000000
 6645.84 0.5648439466000000
 6646.28 0.5591042650000000
 6646.73 0.5533447832000000
 6647.17 0.5475745984000000
 6647.61 0.5417921798999999
 6648.05 0.5359985869000000
 6648.49 0.5301886607000000
 6648.94 0.5243829864000000
 6649.38 0.5185959087000001
 6649.82 0.5128215208000000
 6650.26 0.5070575507000000
 6650.70 0.5013043186000000
 6651.15 0.4955560063000000
 6651.59 0.4898089989000000
 6652.03 0.4840785603000000
 6652.47 0.4783724171000000
 6652.92 0.4726845496000000
 6653.36 0.4670145326000000
 6653.80 0.4613600821000000
 6654.25 0.4557143697000000
 6654.69 0.4500681082000000
 6655.13 0.4444277908000000
 6655.57 0.4387924390000000
 6656.02 0.4331688827000000
 6656.46 0.4275653103000000
 6656.90 0.4219767470000000
 6657.35 0.4164116044000000
 6657.79 0.4108729898000000
 6658.23 0.4053571222000000
 6658.68 0.3998608416000000
 6659.12 0.3944050472000000
 6659.56 0.3889892756000000
 6660.01 0.3836252565000000
 6660.45 0.3783180314000000
 6660.89 0.3730708835000000
 6661.34 0.3678943989000000
 6661.78 0.3627852571000000
 6662.23 0.3577510784000000
 6662.67 0.3527900146000000
 6663.11 0.3478945540000000
 6663.56 0.3430739273000000
 6664.00 0.3383087897000000
 6664.45 0.3336116496000000
 6664.89 0.3289518551000000
 6665.33 0.3243439341000000
 6665.78 0.3197786843000000
 6666.22 0.3152565257000000
 6666.67 0.3107757783000000
 6667.11 0.3063237249000000
 6667.56 0.3019133837000000
 6668.00 0.2975276464000000
 6668.44 0.2931652767000000
 6668.89 0.2888293893000000
 6669.33 0.2845300081000000
 6669.78 0.2802658124000000
 6670.22 0.2760480450000000
 6670.67 0.2718741448000000
 6671.11 0.2677539594000000
 6671.56 0.2636849308000000
 6672.00 0.2596781971000000
 6672.45 0.2557404469000000
 6672.89 0.2518674922000000
 6673.34 0.2480715966000000
 6673.79 0.2443384311000000
 6674.23 0.2406792117000000
 6674.68 0.2370768224000000
 6675.12 0.2335207494000000
 6675.57 0.2300129139000000
 6676.01 0.2265416252000000
 6676.46 0.2231054071000000
 6676.90 0.2196954251000000
 6677.35 0.2163100458000000
 6677.80 0.2129428608000000
 6678.24 0.2095995664000000
 6678.69 0.2062779097000000
 6679.13 0.2029800379000000
 6679.58 0.1997035073000000
 6680.03 0.1964589664000000
 6680.47 0.1932454952000000
 6680.92 0.1900750622000000
 6681.37 0.1869669447000000
 6681.81 0.1839118709000000
 6682.26 0.1809137708000000
 6682.71 0.1779840908000000
 6683.15 0.1751251295000000
 6683.60 0.1723441630000000
 6684.05 0.1696235838000000
 6684.49 0.1669701080000000
 6684.94 0.1643669231000000
 6685.39 0.1618310754000000
 6685.83 0.1593467828000000
 6686.28 0.1568911140000000
 6686.73 0.1544675901000000
 6687.17 0.1520704444000000
 6687.62 0.1496905041000000
 6688.07 0.1473256219000000
 6688.52 0.1449763332000000
 6688.96 0.1426422342000000
 6689.41 0.1403205146000000
 6689.86 0.1380164810000000
 6690.31 0.1357433042000000
 6690.75 0.1334975234000000
 6691.20 0.1312780628000000
 6691.65 0.1290792076000000
 6692.10 0.1269324994000000
 6692.54 0.1248470192000000
 6692.99 0.1228107152000000
 6693.44 0.1208250087000000
 6693.89 0.1188815422000000
 6694.34 0.1169973573000000
 6694.78 0.1151495364000000
 6695.23 0.1133365574000000
 6695.68 0.1115581187000000
 6696.13 0.1097987912000000
 6696.58 0.1080609987000000
 6697.03 0.1063373809000000
 6697.48 0.1046248206000000
 6697.92 0.1029186893000000
 6698.37 0.1012156820000000
 6698.82 0.0995189656400000
 6699.27 0.0978375375100000
 6699.72 0.0961753611700000
 6700.17 0.0945423338500000
 6700.62 0.0929345966600000
 6701.07 0.0913644114300000
 6701.51 0.0898338643100000
 6701.96 0.0883469414000000
 6702.41 0.0869100215100000
 6702.86 0.0855178652100000
 6703.31 0.0841721500800000
 6703.76 0.0828684201100000
 6704.21 0.0815985869700000
 6704.66 0.0803615724600000
 6705.11 0.0791467793800000
 6705.56 0.0779566484100000
 6706.01 0.0767797216600000
 6706.46 0.0756126540900000
 6706.91 0.0744473908300000
 6707.36 0.0732742736100000
 6707.81 0.0720950297500000
 6708.26 0.0709066174000000
 6708.71 0.0697089169300000
 6709.16 0.0685184227500000
 6709.61 0.0673352077000000
 6710.06 0.0661721643300000
 6710.51 0.0650306848300000
 6710.96 0.0639181991100000
 6711.41 0.0628413698300000
 6711.86 0.0618001397200000
 6712.31 0.0608055405100000
 6712.76 0.0598517110800000
 6713.21 0.0589343468400000
 6713.66 0.0580527850700000
 6714.11 0.0571945912100000
 6714.56 0.0563685918400000
 6715.01 0.0555572142800000
 6715.47 0.0547590339900000
 6715.92 0.0539690062100000
 6716.37 0.0531815293000000
 6716.82 0.0523927986100000
 6717.27 0.0515834632200000
 6717.72 0.0507577969300000
 6718.17 0.0499237817200000
 6718.62 0.0490792296200000
 6719.08 0.0482377267100000
 6719.53 0.0474004229100000
 6719.98 0.0465754008300000
 6720.43 0.0457676523700000
 6720.88 0.0449805503800000
 6721.33 0.0442255525100000
 6721.79 0.0434990009100000
 6722.24 0.0428075607600000
 6722.69 0.0421482252400000
 6723.14 0.0415171889300000
 6723.59 0.0409146405300000
 6724.05 0.0403294504800000
 6724.50 0.0397639099900000
 6724.95 0.0392100975000000
 6725.40 0.0386629699600000
 6725.85 0.0381183246900000
 6726.31 0.0375706910900000
 6726.76 0.0370189317400000
 6727.21 0.0364580444500000
 6727.66 0.0358876427000000
 6728.12 0.0353111526200000
 6728.57 0.0347266064900000
 6729.02 0.0341431302600000
 6729.48 0.0335630645800000
 6729.93 0.0329913332300000
 6730.38 0.0324347651000000
 6730.83 0.0318933615600000
 6731.29 0.0313758806300000
 6731.74 0.0308795408300000
 6732.19 0.0304096150800000
 6732.65 0.0299641382300000
 6733.10 0.0295412582100000
 6733.55 0.0291412073400000
 6734.01 0.0287561474700000
 6734.46 0.0283855337100000
 6734.91 0.0280233037500000
 6735.37 0.0276627128600000
 6735.82 0.0273020966000000
 6736.27 0.0269357367200000
 6736.73 0.0265651836900000
 6737.18 0.0261867796800000
 6737.64 0.0257997779800000
 6738.09 0.0254066952100000
 6738.54 0.0250063113200000
 6739.00 0.0246037599700000
 6739.45 0.0242002892900000
 6739.91 0.0238002706900000
 6740.36 0.0234105157100000
 6740.82 0.0230310630000000
 6741.27 0.0226715115100000
 6741.72 0.0223291124600000
 6742.18 0.0220083466600000
 6742.63 0.0217084066600000
 6743.09 0.0214228252400000
 6743.54 0.0211569886100000
 6744.00 0.0209015101100000
 6744.45 0.0206587644700000
 6744.91 0.0204214549300000
 6745.36 0.0201864859300000
 6745.82 0.0199514354200000
 6746.27 0.0197099815400000
 6746.73 0.0194623682200000
 6747.18 0.0192042358000000
 6747.64 0.0189342881400000
 6748.09 0.0186556141500000
 6748.55 0.0183664015600000
 6749.00 0.0180732693200000
 6749.46 0.0177788799300000
 6749.92 0.0174862374000000
 6750.37 0.0172009716400000
 6750.83 0.0169229322000000
 6751.28 0.0166590459700000
 6751.74 0.0164079070900000
 6752.19 0.0161741234800000
 6752.65 0.0159549744900000
 6753.11 0.0157520278900000
 6753.56 0.0155661380700000
 6754.02 0.0153917925900000
 6754.47 0.0152286431400000
 6754.93 0.0150708927700000
 6755.39 0.0149134501600000
 6755.84 0.0147559696300000
 6756.30 0.0145918149600000
 6756.76 0.0144202469300000
 6757.21 0.0142385327000000
 6757.67 0.0140461709100000
 6758.13 0.0138443337300000
 6758.58 0.0136312699900000
 6759.04 0.0134115189300000
 6759.50 0.0131854932600000
 6759.95 0.0129568337100000
 6760.41 0.0127297716900000
 6760.87 0.0125071959100000
 6761.33 0.0122955692300000
 6761.78 0.0120926275700000
 6762.24 0.0119057272400000
 6762.70 0.0117323360800000
 6763.15 0.0115747763100000
 6763.61 0.0114314699500000
 6764.07 0.0113005036800000
 6764.53 0.0111817297700000
 6764.98 0.0110699312000000
 6765.44 0.0109634239600000
 6765.90 0.0108595016100000
 6766.36 0.0107517586500000
 6766.82 0.0106406456500000
 6767.27 0.0105197290200000
 6767.73 0.0103890774900000
 6768.19 0.0102493838900000
 6768.65 0.0100990550300000
 6769.11 0.0099422325430000
 6769.56 0.0097781248600000
 6770.02 0.0096110376620000
 6770.48 0.0094428675610000
 6770.94 0.0092776696010000
 6771.40 0.0091187449650000
 6771.86 0.0089671852210000
 6772.31 0.0088290671880000
 6772.77 0.0087022433820000
 6773.23 0.0085930124920000
 6773.69 0.0084975244050000
 6774.15 0.0084161562580000
 6774.61 0.0083471920140000
 6775.07 0.0082847489050000
 6775.53 0.0082278504050000
 6775.99 0.0081719704190000
 6776.45 0.0081133543000000
 6776.90 0.0080513196000000
 6777.36 0.0079804645170000
 6777.82 0.0079015831070000
 6778.28 0.0078127248870000
 6778.74 0.0077115554330000
 6779.20 0.0075993386490000
 6779.66 0.0074764048730000
 6780.12 0.0073481943980000
 6780.58 0.0072135423770000
 6781.04 0.0070796438700000
 6781.50 0.0069485046410000
 6781.96 0.0068236384880000
 6782.42 0.0067084831650000
 6782.88 0.0066032228090000
 6783.34 0.0065120628170000
 6783.80 0.0064321948910000
 6784.26 0.0063678112320000
 6784.72 0.0063143286380000
 6785.18 0.0062725574420000
 6785.64 0.0062402768500000
 6786.10 0.0062107352600000
 6786.56 0.0061843930770000
 6787.02 0.0061563154380000
 6787.48 0.0061216811950000
 6787.94 0.0060806764970000
 6788.41 0.0060285434330000
 6788.87 0.0059657321910000
 6789.33 0.0058924228740000
 6789.79 0.0058065526400000
 6790.25 0.0057126498860000
 6790.71 0.0056087549700000
 6791.17 0.0055014102630000
 6791.63 0.0053896717060000
 6792.09 0.0052810516450000
 6792.56 0.0051758870620000
 6793.02 0.0050795498960000
 6793.48 0.0049934674370000
 6793.94 0.0049188590480000
 6794.40 0.0048579909080000
 6794.86 0.0048079695310000
 6795.32 0.0047716030920000
 6795.79 0.0047434383460000
 6796.25 0.0047236190200000
 6796.71 0.0047097333100000
 6797.17 0.0046964941900000
 6797.63 0.0046839236390000
 6798.10 0.0046674363100000
 6798.56 0.0046424845600000
 6799.02 0.0046097925270000
 6799.48 0.0045655498190000
 6799.95 0.0045105530830000
 6800.41 0.0044465208350000
 6800.87 0.0043727130320000
 6801.33 0.0042938433320000
 6801.80 0.0042091784960000
 6802.26 0.0041245568080000
 6802.72 0.0040393542260000
 6803.18 0.0039604369950000
 6803.65 0.0038863784440000
 6804.11 0.0038242595200000
 6804.57 0.0037726503440000
 6805.04 0.0037316340030000
 6805.50 0.0037044173060000
 6805.96 0.0036840947770000
 6806.43 0.0036739418410000
 6806.89 0.0036673705800000
 6807.35 0.0036636950250000
 6807.82 0.0036607646640000
 6808.28 0.0036548432810000
 6808.74 0.0036434986920000
 6809.21 0.0036264465030000
 6809.67 0.0035973635400000
 6810.13 0.0035598920160000
 6810.60 0.0035092363290000
 6811.06 0.0034498747810000
 6811.53 0.0033812593830000
 6811.99 0.0033069731300000
 6812.45 0.0032301656540000
 6812.92 0.0031526243670000
 6813.38 0.0030786675830000
 6813.85 0.0030087281700000
 6814.31 0.0029477799620000
 6814.77 0.0028940611020000
 6815.24 0.0028539888360000
 6815.70 0.0028221567190000
 6816.17 0.0028047706260000
 6816.63 0.0027963767790000
 6817.10 0.0027941600660000
 6817.56 0.0027995863830000
 6818.03 0.0028065658760000
 6818.49 0.0028135511730000
 6818.96 0.0028179146720000
 6819.42 0.0028150285710000
 6819.89 0.0028069455240000
 6820.35 0.0027915232280000
 6820.82 0.0027628515360000
 6821.28 0.0027269464320000
 6821.75 0.0026789511730000
 6822.21 0.0026250434850000
 6822.68 0.0025631254840000
 6823.14 0.0024998516080000
 6823.61 0.0024350837050000
 6824.08 0.0023744442050000
 6824.54 0.0023181980480000
 6825.01 0.0022703409990000
 6825.47 0.0022309104210000
 6825.94 0.0022014024160000
 6826.40 0.0021838810810000
 6826.87 0.0021741191000000
 6827.34 0.0021760754780000
 6827.80 0.0021842686970000
 6828.27 0.0021965378880000
 6828.74 0.0022129738440000
 6829.20 0.0022255715840000
 6829.67 0.0022360221890000
 6830.13 0.0022386108460000
 6830.60 0.0022317091550000
 6831.07 0.0022197004900000
 6831.53 0.0021948969550000
 6832.00 0.0021601727800000
 6832.47 0.0021173134820000
 6832.93 0.0020662786370000
 6833.40 0.0020109265880000
 6833.87 0.0019518147780000
 6834.34 0.0018946715560000
 6834.80 0.0018394748630000
 6835.27 0.0017925756370000
 6835.74 0.0017516895220000
 6836.20 0.0017239021420000
 6836.67 0.0017025676420000
 6837.14 0.0016970234060000
 6837.61 0.0017000538170000
 6838.07 0.0017057625150000
 6838.54 0.0017229903580000
 6839.01 0.0017457625320000
 6839.48 0.0017700062120000
 6839.95 0.0017930646400000
 6840.41 0.0018120867910000
 6840.88 0.0018253180790000
 6841.35 0.0018249492450000
 6841.82 0.0018206623740000
 6842.29 0.0018100256250000
 6842.75 0.0017833658680000
 6843.22 0.0017512373970000
 6843.69 0.0017099379160000
 6844.16 0.0016650065060000
 6844.63 0.0016157641910000
 6845.10 0.0015677364850000
 6845.56 0.0015211962480000
 6846.03 0.0014811526960000
 6846.50 0.0014480820490000
 6846.97 0.0014233073700000
 6847.44 0.0014102001190000
 6847.91 0.0014028541650000
 6848.38 0.0014066329690000
 6848.85 0.0014163016850000
 6849.32 0.0014319569420000
 6849.78 0.0014523890960000
 6850.25 0.0014726775010000
 6850.72 0.0014932851410000
 6851.19 0.0015051665560000
 6851.66 0.0015125903970000
 6852.13 0.0015138761230000
 6852.60 0.0015021575510000
 6853.07 0.0014835540540000
 6853.54 0.0014542495070000
 6854.01 0.0014168295060000
 6854.48 0.0013734799180000
 6854.95 0.0013253535760000
 6855.42 0.0012794022880000
 6855.89 0.0012295852160000
 6856.36 0.0011555148760000
 6856.83 0.0010706714470000
 6857.30 0.0010291562220000
 6857.77 0.0010096266520000
 6858.24 0.0010060515950000
 6858.71 0.0010068957860000
 6859.18 0.0010105915570000
 6859.65 0.0010289529070000
 6860.12 0.0010530799530000
 6860.59 0.0010807543960000
 6861.06 0.0011086186840000
 6861.53 0.0011366428980000
 6862.01 0.0011591832650000
 6862.48 0.0011754755610000
 6862.95 0.0011845772810000
 6863.42 0.0011815242660000
 6863.89 0.0011727350380000
 6864.36 0.0011569058170000
 6864.83 0.0011298567220000
 6865.30 0.0010998571030000
 6865.77 0.0010649760170000
 6866.25 0.0010304997470000
 6866.72 0.0009959479976000
 6867.19 0.0009672041705000
 6867.66 0.0009420995066000
 6868.13 0.0009296052943000
 6868.60 0.0009249193032000
 6869.08 0.0009237796095000
 6869.55 0.0009367831652000
 6870.02 0.0009559395596000
 6870.49 0.0009820707728000
 6870.96 0.0010115779530000
 6871.44 0.0010432642650000
 6871.91 0.0010749171470000
 6872.38 0.0011030863530000
 6872.85 0.0011264494770000
 6873.32 0.0011371895280000
 6873.80 0.0011435013440000
 6874.27 0.0011409734770000
 6874.74 0.0011244446010000
 6875.21 0.0011023341960000
 6875.69 0.0010693877570000
 6876.16 0.0010321971670000
 6876.63 0.0009901685626000
