# HIMAWARI9 relative spectral response function for band 1
# (see http://www.data.jma.go.jp/mscweb/en/himawari89/space_segment/spsg_ahi.html#band)
# converted from 
# http://www.data.jma.go.jp/mscweb/en/himawari89/space_segment/srf_201309/AHI-08_SpectralResponsivity.zip
# http://www.data.jma.go.jp/mscweb/en/himawari89/space_segment/srf_201310/AHI-09_SpectralResponsivity.zip
# 
# LAMBDA   RSR
# 
  441.13 0.0009955609244000
  441.15 0.0010181816160000
  441.17 0.0010418788150000
  441.19 0.0010666478930000
  441.21 0.0010924842190000
  441.23 0.0011193831610000
  441.25 0.0011473400810000
  441.27 0.0011763503430000
  441.29 0.0012064093060000
  441.31 0.0012375123250000
  441.33 0.0012696547570000
  441.35 0.0013028319510000
  441.36 0.0013370392580000
  441.38 0.0013722720240000
  441.40 0.0014085255930000
  441.42 0.0014457953070000
  441.44 0.0014840765040000
  441.46 0.0015233645210000
  441.48 0.0015636546920000
  441.50 0.0016049423490000
  441.52 0.0016472228190000
  441.54 0.0016904914300000
  441.56 0.0017347435060000
  441.58 0.0017799743660000
  441.60 0.0018261793310000
  441.62 0.0018733537160000
  441.64 0.0019214928340000
  441.66 0.0019705919970000
  441.68 0.0020206465130000
  441.70 0.0020716516880000
  441.72 0.0021236028260000
  441.74 0.0021764952260000
  441.75 0.0022303241880000
  441.77 0.0022850850070000
  441.79 0.0023407729750000
  441.81 0.0023973833850000
  441.83 0.0024549115230000
  441.85 0.0025133526740000
  441.87 0.0025727021230000
  441.89 0.0026329551490000
  441.91 0.0026941070290000
  441.93 0.0027561530390000
  441.95 0.0028190884520000
  441.97 0.0028829085380000
  441.99 0.0029476085630000
  442.01 0.0030134599200000
  442.03 0.0030826401840000
  442.05 0.0031556124020000
  442.07 0.0032323714460000
  442.09 0.0033129121840000
  442.11 0.0033972294810000
  442.13 0.0034853182020000
  442.15 0.0035771732050000
  442.16 0.0036727893480000
  442.18 0.0037721614840000
  442.20 0.0038752844630000
  442.22 0.0039821531350000
  442.24 0.0040927623420000
  442.26 0.0042071069280000
  442.28 0.0043251817310000
  442.30 0.0044469815860000
  442.32 0.0045725013270000
  442.34 0.0047017357840000
  442.36 0.0048346797820000
  442.38 0.0049713281460000
  442.40 0.0051116756970000
  442.42 0.0052557172520000
  442.44 0.0054034476260000
  442.46 0.0055548616310000
  442.48 0.0057099540750000
  442.50 0.0058687197640000
  442.52 0.0060311535000000
  442.54 0.0061972500850000
  442.56 0.0063670043130000
  442.58 0.0065404109780000
  442.60 0.0067174648720000
  442.61 0.0068981607810000
  442.63 0.0070824934910000
  442.65 0.0072704577820000
  442.67 0.0074620484340000
  442.69 0.0076572602210000
  442.71 0.0078560879160000
  442.73 0.0080585262880000
  442.75 0.0082645701050000
  442.77 0.0084742141280000
  442.79 0.0086874531180000
  442.81 0.0089042818330000
  442.83 0.0091246950270000
  442.85 0.0093486874510000
  442.87 0.0095762538520000
  442.89 0.0098073889770000
  442.91 0.0100420875700000
  442.93 0.0102803443600000
  442.95 0.0105221540900000
  442.97 0.0107675115000000
  442.99 0.0110164113100000
  443.01 0.0112697582100000
  443.03 0.0115375542500000
  443.05 0.0118223761400000
  443.07 0.0121239936000000
  443.09 0.0124421762100000
  443.11 0.0127766934300000
  443.12 0.0131273146100000
  443.14 0.0134938089600000
  443.16 0.0138759455700000
  443.18 0.0142734934200000
  443.20 0.0146862213500000
  443.22 0.0151138980700000
  443.24 0.0155562921900000
  443.26 0.0160131721700000
  443.28 0.0164843063700000
  443.30 0.0169694630100000
  443.32 0.0174684101900000
  443.34 0.0179809158800000
  443.36 0.0185067479400000
  443.38 0.0190456740900000
  443.40 0.0195974619300000
  443.42 0.0201618789400000
  443.44 0.0207386924700000
  443.46 0.0213276697600000
  443.48 0.0219285778900000
  443.50 0.0225411838600000
  443.52 0.0231652545200000
  443.54 0.0238005565900000
  443.56 0.0244468566700000
  443.58 0.0251039212500000
  443.60 0.0257715166800000
  443.62 0.0264494091900000
  443.64 0.0271373648700000
  443.66 0.0278351497200000
  443.68 0.0285425295700000
  443.70 0.0292592701700000
  443.71 0.0299851371000000
  443.73 0.0307198958400000
  443.75 0.0314633117600000
  443.77 0.0322151500600000
  443.79 0.0329751758500000
  443.81 0.0337431541100000
  443.83 0.0345188496800000
  443.85 0.0353020272900000
  443.87 0.0360924515200000
  443.89 0.0368898868600000
  443.91 0.0376940976400000
  443.93 0.0385048480800000
  443.95 0.0393219022800000
  443.97 0.0401450242000000
  443.99 0.0409739776800000
  444.01 0.0418130788000000
  444.03 0.0426867961900000
  444.05 0.0435979766000000
  444.07 0.0445456365900000
  444.09 0.0455287922000000
  444.11 0.0465464589600000
  444.13 0.0475976518500000
  444.15 0.0486813853200000
  444.17 0.0497966733200000
  444.19 0.0509425292500000
  444.21 0.0521179659800000
  444.23 0.0533219958700000
  444.25 0.0545536307300000
  444.27 0.0558118818500000
  444.29 0.0570957600000000
  444.31 0.0584042754000000
  444.33 0.0597364377700000
  444.35 0.0610912562700000
  444.37 0.0624677395400000
  444.39 0.0638648957100000
  444.40 0.0652817323400000
  444.42 0.0667172565000000
  444.44 0.0681704747100000
  444.46 0.0696403929400000
  444.48 0.0711260166700000
  444.50 0.0726263508100000
  444.52 0.0741403997600000
  444.54 0.0756671673800000
  444.56 0.0772056570100000
  444.58 0.0787548714300000
  444.60 0.0803138129200000
  444.62 0.0818814831900000
  444.64 0.0834568834600000
  444.66 0.0850390143900000
  444.68 0.0866268761000000
  444.70 0.0882194681900000
  444.72 0.0898157897200000
  444.74 0.0914148392200000
  444.76 0.0930156146800000
  444.78 0.0946171135700000
  444.80 0.0962183327900000
  444.82 0.0978182687400000
  444.84 0.0994159172700000
  444.86 0.1010102737000000
  444.88 0.1026003328000000
  444.90 0.1041850888000000
  444.92 0.1057635354000000
  444.94 0.1073346658000000
  444.96 0.1088974727000000
  444.98 0.1104509480000000
  445.00 0.1119940834000000
  445.02 0.1135364133000000
  445.04 0.1150920957000000
  445.06 0.1166608086000000
  445.08 0.1182421277000000
  445.10 0.1198356283000000
  445.12 0.1214408857000000
  445.14 0.1230574748000000
  445.16 0.1246849705000000
  445.18 0.1263229471000000
  445.20 0.1279709790000000
  445.22 0.1296286403000000
  445.24 0.1312955048000000
  445.26 0.1329711460000000
  445.28 0.1346551374000000
  445.30 0.1363470521000000
  445.32 0.1380464630000000
  445.34 0.1397529428000000
  445.35 0.1414660639000000
  445.37 0.1431853987000000
  445.39 0.1449105190000000
  445.41 0.1466409967000000
  445.43 0.1483764034000000
  445.45 0.1501163102000000
  445.47 0.1518602883000000
  445.49 0.1536079086000000
  445.51 0.1553587417000000
  445.53 0.1571123579000000
  445.55 0.1588683274000000
  445.57 0.1606262203000000
  445.59 0.1623856061000000
  445.61 0.1641460543000000
  445.63 0.1659071342000000
  445.65 0.1676684149000000
  445.67 0.1694294650000000
  445.69 0.1711898531000000
  445.71 0.1729491477000000
  445.73 0.1747069166000000
  445.75 0.1764627278000000
  445.77 0.1782161490000000
  445.79 0.1799667475000000
  445.81 0.1817140905000000
  445.83 0.1834577450000000
  445.85 0.1851972775000000
  445.87 0.1869322547000000
  445.89 0.1886622427000000
  445.91 0.1903868075000000
  445.93 0.1921055150000000
  445.95 0.1938179306000000
  445.97 0.1955236197000000
  445.99 0.1972221474000000
  446.01 0.1989140615000000
  446.03 0.2006044527000000
  446.05 0.2022941234000000
  446.07 0.2039830858000000
  446.09 0.2056713525000000
  446.11 0.2073589356000000
  446.13 0.2090458476000000
  446.15 0.2107321010000000
  446.17 0.2124177080000000
  446.19 0.2141026810000000
  446.21 0.2157870326000000
  446.23 0.2174707749000000
  446.25 0.2191539206000000
  446.27 0.2208364820000000
  446.29 0.2225184715000000
  446.31 0.2241999015000000
  446.33 0.2258807845000000
  446.35 0.2275611330000000
  446.37 0.2292409594000000
  446.39 0.2309202762000000
  446.41 0.2325990957000000
  446.43 0.2342774306000000
  446.45 0.2359552932000000
  446.47 0.2376326961000000
  446.49 0.2393096518000000
  446.51 0.2409861727000000
  446.53 0.2426622713000000
  446.55 0.2443379603000000
  446.57 0.2460132520000000
  446.59 0.2476881591000000
  446.61 0.2493626940000000
  446.63 0.2510368693000000
  446.65 0.2527106976000000
  446.67 0.2543841914000000
  446.69 0.2560573632000000
  446.71 0.2577302257000000
  446.73 0.2594027913000000
  446.75 0.2610750728000000
  446.77 0.2627470826000000
  446.79 0.2644188334000000
  446.81 0.2660903377000000
  446.83 0.2677616082000000
  446.85 0.2694326575000000
  446.87 0.2711034982000000
  446.89 0.2727741430000000
  446.91 0.2744446044000000
  446.93 0.2761148952000000
  446.95 0.2777850279000000
  446.97 0.2794550153000000
  446.99 0.2811248699000000
  447.01 0.2827948815000000
  447.03 0.2844680264000000
  447.05 0.2861449010000000
  447.07 0.2878252419000000
  447.09 0.2895087858000000
  447.11 0.2911952689000000
  447.13 0.2928844275000000
  447.15 0.2945759979000000
  447.17 0.2962697158000000
  447.19 0.2979653171000000
  447.21 0.2996625376000000
  447.23 0.3013611128000000
  447.25 0.3030607780000000
  447.27 0.3047612685000000
  447.29 0.3064623195000000
  447.31 0.3081636659000000
  447.33 0.3098650425000000
  447.35 0.3115661840000000
  447.37 0.3132668250000000
  447.39 0.3149666999000000
  447.41 0.3166655429000000
  447.43 0.3183630881000000
  447.45 0.3200590696000000
  447.47 0.3217532211000000
  447.49 0.3234452763000000
  447.51 0.3251349689000000
  447.53 0.3268220321000000
  447.55 0.3285061993000000
  447.57 0.3301872036000000
  447.59 0.3318647779000000
  447.61 0.3335386551000000
  447.63 0.3352085678000000
  447.65 0.3368742487000000
  447.67 0.3385354300000000
  447.69 0.3401918441000000
  447.71 0.3418432231000000
  447.73 0.3434892990000000
  447.75 0.3451298035000000
  447.77 0.3467644684000000
  447.79 0.3483930251000000
  447.81 0.3500152052000000
  447.83 0.3516307398000000
  447.85 0.3532393601000000
  447.87 0.3548407970000000
  447.89 0.3564347813000000
  447.91 0.3580210437000000
  447.93 0.3595993147000000
  447.95 0.3611693248000000
  447.97 0.3627308042000000
  447.99 0.3642834829000000
  448.01 0.3658273037000000
  448.03 0.3673638723000000
  448.05 0.3688937138000000
  448.07 0.3704169990000000
  448.09 0.3719338988000000
  448.11 0.3734445843000000
  448.13 0.3749492265000000
  448.15 0.3764479968000000
  448.17 0.3779410663000000
  448.19 0.3794286066000000
  448.21 0.3809107890000000
  448.23 0.3823877852000000
  448.25 0.3838597669000000
  448.27 0.3853269057000000
  448.29 0.3867893737000000
  448.31 0.3882473426000000
  448.33 0.3897009847000000
  448.35 0.3911504720000000
  448.37 0.3925959767000000
  448.39 0.3940376712000000
  448.41 0.3954757279000000
  448.43 0.3969103193000000
  448.45 0.3983416181000000
  448.47 0.3997697968000000
  448.49 0.4011950284000000
  448.51 0.4026174856000000
  448.53 0.4040373415000000
  448.55 0.4054547692000000
  448.57 0.4068699417000000
  448.59 0.4082830325000000
  448.61 0.4096942147000000
  448.63 0.4111036619000000
  448.65 0.4125115476000000
  448.67 0.4139180454000000
  448.69 0.4153233291000000
  448.71 0.4167275724000000
  448.73 0.4181309494000000
  448.75 0.4195336339000000
  448.77 0.4209358001000000
  448.79 0.4223376223000000
  448.81 0.4237392746000000
  448.83 0.4251409314000000
  448.85 0.4265427673000000
  448.87 0.4279449569000000
  448.89 0.4293476746000000
  448.91 0.4307510955000000
  448.93 0.4321553942000000
  448.95 0.4335607457000000
  448.97 0.4349673251000000
  448.99 0.4363753075000000
  449.01 0.4377836164000000
  449.03 0.4391889547000000
  449.05 0.4405912477000000
  449.07 0.4419906193000000
  449.10 0.4433871931000000
  449.12 0.4447810932000000
  449.14 0.4461724435000000
  449.16 0.4475613681000000
  449.18 0.4489479910000000
  449.20 0.4503324366000000
  449.22 0.4517148289000000
  449.24 0.4530952923000000
  449.26 0.4544739511000000
  449.28 0.4558509300000000
  449.30 0.4572263532000000
  449.32 0.4586003455000000
  449.34 0.4599730314000000
  449.36 0.4613445358000000
  449.38 0.4627149832000000
  449.40 0.4640844987000000
  449.42 0.4654532072000000
  449.44 0.4668212335000000
  449.46 0.4681887028000000
  449.48 0.4695557402000000
  449.50 0.4709224708000000
  449.52 0.4722890200000000
  449.54 0.4736555130000000
  449.56 0.4750220752000000
  449.58 0.4763888322000000
  449.60 0.4777559093000000
  449.62 0.4791234323000000
  449.64 0.4804915267000000
  449.66 0.4818603183000000
  449.68 0.4832299329000000
  449.70 0.4846004964000000
  449.72 0.4859721346000000
  449.74 0.4873449736000000
  449.76 0.4887191395000000
  449.78 0.4900947583000000
  449.80 0.4914719564000000
  449.82 0.4928508599000000
  449.84 0.4942315952000000
  449.86 0.4956142887000000
  449.88 0.4969990668000000
  449.90 0.4983860563000000
  449.92 0.4997753835000000
  449.94 0.5011671752000000
  449.96 0.5025615583000000
  449.98 0.5039586594000000
  450.00 0.5053585682000000
  450.02 0.5067603558000000
  450.05 0.5081635483000000
  450.07 0.5095681120000000
  450.09 0.5109740131000000
  450.11 0.5123812180000000
  450.13 0.5137896930000000
  450.15 0.5151994043000000
  450.17 0.5166103183000000
  450.19 0.5180224010000000
  450.21 0.5194356188000000
  450.23 0.5208499378000000
  450.25 0.5222653242999999
  450.27 0.5236817443000000
  450.29 0.5250991641000000
  450.31 0.5265175496000000
  450.33 0.5279368671000000
  450.35 0.5293570827000000
  450.37 0.5307781623000000
  450.39 0.5322000721000000
  450.41 0.5336227781000000
  450.43 0.5350462462000000
  450.45 0.5364704425000000
  450.47 0.5378953330000000
  450.49 0.5393208836000000
  450.51 0.5407470603000000
  450.53 0.5421738289000000
  450.55 0.5436011554000000
  450.57 0.5450290056000000
  450.59 0.5464573455000000
  450.61 0.5478861408000000
  450.63 0.5493153574000000
  450.65 0.5507449611000000
  450.67 0.5521749177000000
  450.69 0.5536051930000000
  450.71 0.5550357527000001
  450.73 0.5564665625000000
  450.76 0.5578975883000000
  450.78 0.5593287955000000
  450.80 0.5607601501000000
  450.82 0.5621916175000000
  450.84 0.5636231635000000
  450.86 0.5650547536000000
  450.88 0.5664863535000000
  450.90 0.5679179288000000
  450.92 0.5693494451000000
  450.94 0.5707808677000000
  450.96 0.5722121625000000
  450.98 0.5736432947000000
  451.00 0.5750742299000000
  451.02 0.5765095960000000
  451.04 0.5779546748000000
  451.06 0.5794088741000000
  451.08 0.5808715875000000
  451.10 0.5823422083999999
  451.12 0.5838201298000000
  451.14 0.5853047445000000
  451.16 0.5867954447000000
  451.18 0.5882916226000000
  451.20 0.5897926698000000
  451.22 0.5912979778000000
  451.24 0.5928069376000000
  451.26 0.5943189397999999
  451.28 0.5958333750000000
  451.30 0.5973496332000000
  451.32 0.5988671040000000
  451.35 0.6003851770000000
  451.37 0.6019032411000000
  451.39 0.6034206851000000
  451.41 0.6049368975000000
  451.43 0.6064512663000000
  451.45 0.6079631791000000
  451.47 0.6094720236000000
  451.49 0.6109771867000000
  451.51 0.6124780552000000
  451.53 0.6139740155000000
  451.55 0.6154644537000000
  451.57 0.6169487554999999
  451.59 0.6184263064000000
  451.61 0.6198964915000000
  451.63 0.6213586955000000
  451.65 0.6228123028000000
  451.67 0.6242566975000000
  451.69 0.6256912635000000
  451.71 0.6271153840000000
  451.73 0.6285284422000000
  451.75 0.6299298209000000
  451.77 0.6313189025000000
  451.79 0.6326950691000000
  451.81 0.6340577023000000
  451.83 0.6354061837000000
  451.85 0.6367398944000000
  451.88 0.6380582150000000
  451.90 0.6393605260000000
  451.92 0.6406462075000000
  451.94 0.6419146392000000
  451.96 0.6431652005000000
  451.98 0.6443972706000000
  452.00 0.6456102281000000
  452.02 0.6468121793000000
  452.04 0.6480155453000001
  452.06 0.6492199009000000
  452.08 0.6504246975000000
  452.10 0.6516293859000000
  452.12 0.6528334171000000
  452.14 0.6540362414000001
  452.16 0.6552373091000000
  452.18 0.6564360699000000
  452.20 0.6576319734000000
  452.22 0.6588244690000000
  452.24 0.6600130054000000
  452.26 0.6611970315000000
  452.28 0.6623759956000000
  452.30 0.6635493456000000
  452.32 0.6647165295000000
  452.35 0.6658769946000000
  452.37 0.6670301882000000
  452.39 0.6681755571000000
  452.41 0.6693125478000000
  452.43 0.6704406066000000
  452.45 0.6715591796000000
  452.47 0.6726677123000000
  452.49 0.6737656501000000
  452.51 0.6748524381000000
  452.53 0.6759275210000000
  452.55 0.6769903434000000
  452.57 0.6780403494000000
  452.59 0.6790769828000000
  452.61 0.6800996872000000
  452.63 0.6811079058000000
  452.65 0.6821010816999999
  452.67 0.6830786575000000
  452.69 0.6840400755000000
  452.71 0.6849847778000000
  452.73 0.6859122061000000
  452.76 0.6868218019000000
  452.78 0.6877130063000000
  452.80 0.6885852603000000
  452.82 0.6894380042000000
  452.84 0.6902706784000000
  452.86 0.6910827228000000
  452.88 0.6918735770000000
  452.90 0.6926426804000000
  452.92 0.6933894720000000
  452.94 0.6941133905000000
  452.96 0.6948138743000000
  452.98 0.6954903616000000
  453.00 0.6961423059000000
  453.02 0.6967750504000000
  453.04 0.6973935250000000
  453.06 0.6979981924999999
  453.08 0.6985895157000001
  453.10 0.6991679577000000
  453.12 0.6997339818000000
  453.14 0.7002880518000000
  453.17 0.7008306314000000
  453.19 0.7013621847000000
  453.21 0.7018831763000000
  453.23 0.7023940706000000
  453.25 0.7028953326000000
  453.27 0.7033874274000000
  453.29 0.7038708204000000
  453.31 0.7043459773000000
  453.33 0.7048133640000001
  453.35 0.7052734465000000
  453.37 0.7057266914000000
  453.39 0.7061735653000000
  453.41 0.7066145350000000
  453.43 0.7070500679000000
  453.45 0.7074806312000000
  453.47 0.7079066928000000
  453.49 0.7083287203999999
  453.51 0.7087471824000000
  453.54 0.7091625472000000
  453.56 0.7095752834000000
  453.58 0.7099858600000000
  453.60 0.7103947462000000
  453.62 0.7108024116000000
  453.64 0.7112093258000000
  453.66 0.7116159587999999
  453.68 0.7120227808000000
  453.70 0.7124302624000000
  453.72 0.7128388743000000
  453.74 0.7132490874000000
  453.76 0.7136613731000000
  453.78 0.7140762029000000
  453.80 0.7144940485000000
  453.82 0.7149153819000000
  453.84 0.7153406756000000
  453.86 0.7157704019000000
  453.89 0.7162050337000000
  453.91 0.7166450441000000
  453.93 0.7170909063999999
  453.95 0.7175430940999999
  453.97 0.7180020812000000
  453.99 0.7184683415999999
  454.01 0.7189415270000000
  454.03 0.7194153943000000
  454.05 0.7198886100000000
  454.07 0.7203612446000000
  454.09 0.7208333686000000
  454.11 0.7213050525000000
  454.13 0.7217763667000000
  454.15 0.7222473820000000
  454.17 0.7227181687000001
  454.19 0.7231887978000000
  454.22 0.7236593397000000
  454.24 0.7241298652000000
  454.26 0.7246004452000000
  454.28 0.7250711503000000
  454.30 0.7255420515000000
  454.32 0.7260132196000000
  454.34 0.7264847256000000
  454.36 0.7269566403000000
  454.38 0.7274290349000000
  454.40 0.7279019803000000
  454.42 0.7283755476000000
  454.44 0.7288498079000000
  454.46 0.7293248324000000
  454.48 0.7298006922000000
  454.50 0.7302774586000000
  454.52 0.7307552029000000
  454.55 0.7312339963000000
  454.57 0.7317139102000000
  454.59 0.7321950160000000
  454.61 0.7326773852000000
  454.63 0.7331610891000000
  454.65 0.7336461992000000
  454.67 0.7341327872000000
  454.69 0.7346209245999999
  454.71 0.7351106830000000
  454.73 0.7356021340000000
  454.75 0.7360953494000000
  454.77 0.7365904009000001
  454.79 0.7370873603000000
  454.81 0.7375862993000000
  454.83 0.7380872898000000
  454.86 0.7385904038000000
  454.88 0.7390957132000000
  454.90 0.7396032898000000
  454.92 0.7401132058000000
  454.94 0.7406255331000000
  454.96 0.7411403439000001
  454.98 0.7416577103000001
  455.00 0.7421777049000000
  455.02 0.7427012927000000
  455.04 0.7432292022000000
  455.06 0.7437612667000000
  455.08 0.7442973191000000
  455.10 0.7448371927000000
  455.12 0.7453807203000000
  455.15 0.7459277347000000
  455.17 0.7464780688000000
  455.19 0.7470315553000000
  455.21 0.7475880266000000
  455.23 0.7481473154000000
  455.25 0.7487092539000000
  455.27 0.7492736745000000
  455.29 0.7498404095000000
  455.31 0.7504092909000000
  455.33 0.7509801508000000
  455.35 0.7515528211000000
  455.37 0.7521271337000000
  455.39 0.7527029203000000
  455.41 0.7532800126000000
  455.44 0.7538582422000000
  455.46 0.7544374404000000
  455.48 0.7550174388999999
  455.50 0.7555980687000000
  455.52 0.7561791611000001
  455.54 0.7567605473000000
  455.56 0.7573420583000000
  455.58 0.7579235249000000
  455.60 0.7585047781000001
  455.62 0.7590856484000000
  455.64 0.7596659667000000
  455.66 0.7602455635000001
  455.68 0.7608242692000000
  455.71 0.7614019141000000
  455.73 0.7619783287000000
  455.75 0.7625533430000000
  455.77 0.7631267871000000
  455.79 0.7636984911000000
  455.81 0.7642682848000000
  455.83 0.7648359981000000
  455.85 0.7654014607000000
  455.87 0.7659645023000000
  455.89 0.7665249522000001
  455.91 0.7670826401000000
  455.93 0.7676373952000000
  455.95 0.7681890468000000
  455.98 0.7687374240000000
  456.00 0.7692823559999999
  456.02 0.7698281898000000
  456.04 0.7703830508000000
  456.06 0.7709464857000000
  456.08 0.7715178336000000
  456.10 0.7720964336000000
  456.12 0.7726816240000000
  456.14 0.7732727430000000
  456.16 0.7738691285000000
  456.18 0.7744701178000000
  456.20 0.7750750481000001
  456.23 0.7756832560000000
  456.25 0.7762940779000000
  456.27 0.7769068497000000
  456.29 0.7775209071000000
  456.31 0.7781355852000000
  456.33 0.7787502191000000
  456.35 0.7793641431000000
  456.37 0.7799766915000000
  456.39 0.7805871980000000
  456.41 0.7811949962000000
  456.43 0.7817994189000000
  456.45 0.7823997990000000
  456.48 0.7829954687000000
  456.50 0.7835857600000000
  456.52 0.7841700045000000
  456.54 0.7847475335000000
  456.56 0.7853176777999999
  456.58 0.7858797680000000
  456.60 0.7864331340000000
  456.62 0.7869771058000000
  456.64 0.7875110127000000
  456.66 0.7880341837000000
  456.68 0.7885459476000000
  456.70 0.7890456326000000
  456.73 0.7895325666000000
  456.75 0.7900060772000000
  456.77 0.7904654917000000
  456.79 0.7909101368000000
  456.81 0.7913393390000000
  456.83 0.7917524244000000
  456.85 0.7921487187000000
  456.87 0.7925275473000000
  456.89 0.7928882352000000
  456.91 0.7932301069000000
  456.93 0.7935524868000000
  456.95 0.7938546987000000
  456.98 0.7941360662000000
  457.00 0.7943959123000000
  457.02 0.7946413018000000
  457.04 0.7948858425000001
  457.06 0.7951296245000000
  457.08 0.7953724511000000
  457.10 0.7956141254000000
  457.12 0.7958544503000000
  457.14 0.7960932288000000
  457.16 0.7963302636000000
  457.18 0.7965653574000000
  457.21 0.7967983128000000
  457.23 0.7970289322000000
  457.25 0.7972570180000000
  457.27 0.7974823724000000
  457.29 0.7977047975000000
  457.31 0.7979240955000000
  457.33 0.7981400680000000
  457.35 0.7983525171000000
  457.37 0.7985612444000000
  457.39 0.7987660514000000
  457.41 0.7989667397000000
  457.44 0.7991631106000000
  457.46 0.7993549654000000
  457.48 0.7995421053000000
  457.50 0.7997243312000000
  457.52 0.7999014442000000
  457.54 0.8000732450000000
  457.56 0.8002395344000000
  457.58 0.8004001129000000
  457.60 0.8005547812000000
  457.62 0.8007033395000001
  457.64 0.8008455880999999
  457.67 0.8009813273000000
  457.69 0.8011103571000000
  457.71 0.8012324774000000
  457.73 0.8013474881000000
  457.75 0.8014551889000000
  457.77 0.8015553795000000
  457.79 0.8016478593000000
  457.81 0.8017324278000000
  457.83 0.8018088843000000
  457.85 0.8018770279000000
  457.88 0.8019366578000000
  457.90 0.8019875729000000
  457.92 0.8020295720000000
  457.94 0.8020624539000000
  457.96 0.8020860173000000
  457.98 0.8021000606000001
  458.00 0.8021043617000000
  458.02 0.8020927638999999
  458.04 0.8020611156000000
  458.06 0.8020102917000000
  458.09 0.8019411680000000
  458.11 0.8018546205000000
  458.13 0.8017515256000000
  458.15 0.8016327605000000
  458.17 0.8014992028000000
  458.19 0.8013517301999999
  458.21 0.8011912215000000
  458.23 0.8010185555000000
  458.25 0.8008346117000000
  458.27 0.8006402700000000
  458.30 0.8004364109000000
  458.32 0.8002239152000000
  458.34 0.8000036644000000
  458.36 0.7997765403000000
  458.38 0.7995434253000000
  458.40 0.7993052023000000
  458.42 0.7990627546000000
  458.44 0.7988169660000000
  458.46 0.7985687208000000
  458.48 0.7983189038000000
  458.51 0.7980684003000000
  458.53 0.7978180962000000
  458.55 0.7975688775000001
  458.57 0.7973216311000000
  458.59 0.7970772443000000
  458.61 0.7968366046000001
  458.63 0.7966006005000000
  458.65 0.7963701205000000
  458.67 0.7961460538000000
  458.69 0.7959292901000000
  458.72 0.7957207196000000
  458.74 0.7955212329000000
  458.76 0.7953317213000000
  458.78 0.7951530762000000
  458.80 0.7949861899000000
  458.82 0.7948319550000000
  458.84 0.7946912645000000
  458.86 0.7945650121000000
  458.88 0.7944540918000000
  458.91 0.7943593983000000
  458.93 0.7942818265000000
  458.95 0.7942222722000000
  458.97 0.7941816313000000
  458.99 0.7941608003000000
  459.01 0.7941582176999999
  459.03 0.7941592346000000
  459.05 0.7941612716999999
  459.07 0.7941643245000000
  459.09 0.7941683883000000
  459.12 0.7941734584000000
  459.14 0.7941795302000000
  459.16 0.7941865990000000
  459.18 0.7941946602000000
  459.20 0.7942037092000001
  459.22 0.7942137412000000
  459.24 0.7942247515999999
  459.26 0.7942367358000000
  459.28 0.7942496890000000
  459.31 0.7942636067000000
  459.33 0.7942784841000000
  459.35 0.7942943165000000
  459.37 0.7943110993000000
  459.39 0.7943288279000000
  459.41 0.7943474974000000
  459.43 0.7943671033000000
  459.45 0.7943876408000000
  459.47 0.7944091053000000
  459.50 0.7944314920000000
  459.52 0.7944547963000000
  459.54 0.7944790135000001
  459.56 0.7945041388000000
  459.58 0.7945301675999999
  459.60 0.7945570951000001
  459.62 0.7945849167000000
  459.64 0.7946136276000000
  459.66 0.7946432231000000
  459.69 0.7946736985000000
  459.71 0.7947050490999999
  459.73 0.7947372700999999
  459.75 0.7947703569000000
  459.77 0.7948043047000000
  459.79 0.7948391087000000
  459.81 0.7948747643000000
  459.83 0.7949112666000000
  459.85 0.7949486111000000
  459.88 0.7949867928000000
  459.90 0.7950258071000000
  459.92 0.7950656493000000
  459.94 0.7951063145000000
  459.96 0.7951477980000000
  459.98 0.7951900951000000
  460.00 0.7952335349000000
  460.02 0.7953019300000000
  460.05 0.7954090455000000
  460.07 0.7955536512000000
  460.09 0.7957345166000001
  460.11 0.7959504102000000
  460.13 0.7962000999000000
  460.15 0.7964823531000000
  460.17 0.7967959363000000
  460.19 0.7971396154000000
  460.21 0.7975121556000000
  460.24 0.7979123213000000
  460.26 0.7983388766000000
  460.28 0.7987905843999999
  460.30 0.7992662073000000
  460.32 0.7997645070000000
  460.34 0.8002842446000000
  460.36 0.8008241806000000
  460.38 0.8013830746000000
  460.41 0.8019596858000000
  460.43 0.8025527723000000
  460.45 0.8031610920000000
  460.47 0.8037834018000000
  460.49 0.8044184578000000
  460.51 0.8050650159000000
  460.53 0.8057218308000000
  460.55 0.8063876568000000
  460.57 0.8070612473000000
  460.60 0.8077413553000000
  460.62 0.8084267329000000
  460.64 0.8091161316000000
  460.66 0.8098083020000000
  460.68 0.8105019943000000
  460.70 0.8111959580000000
  460.72 0.8118889415000000
  460.74 0.8125796931000000
  460.77 0.8132669599000000
  460.79 0.8139494886000000
  460.81 0.8146260251000000
  460.83 0.8152953147000001
  460.85 0.8159561019000000
  460.87 0.8166071305000000
  460.89 0.8172471437000000
  460.91 0.8178748839000000
  460.94 0.8184890929000000
  460.96 0.8190885118000000
  460.98 0.8196718809000000
  461.00 0.8202379399000000
  461.02 0.8208061883000000
  461.04 0.8213981867000000
  461.06 0.8220124226000000
  461.08 0.8226473674000000
  461.11 0.8233014917000000
  461.13 0.8239732654000000
  461.15 0.8246611575000000
  461.17 0.8253636361000000
  461.19 0.8260791685000000
  461.21 0.8268062211000000
  461.23 0.8275432595000000
  461.25 0.8282887485000000
  461.28 0.8290411518000000
  461.30 0.8297989327000000
  461.32 0.8305605531000000
  461.34 0.8313244746000000
  461.36 0.8320891574000000
  461.38 0.8328530614000000
  461.40 0.8336146451000001
  461.42 0.8343723666000000
  461.45 0.8351246829000000
  461.47 0.8358700502999999
  461.49 0.8366069240000000
  461.51 0.8373337586000000
  461.53 0.8380490077000000
  461.55 0.8387511241000000
  461.57 0.8394385598000000
  461.60 0.8401097657000000
  461.62 0.8407631922000000
  461.64 0.8413972887000000
  461.66 0.8420105035000000
  461.68 0.8426012843000000
  461.70 0.8431680780000000
  461.72 0.8437093304000000
  461.74 0.8442234867000000
  461.77 0.8447089910000000
  461.79 0.8451642868000000
  461.81 0.8455878164000000
  461.83 0.8459780214000000
  461.85 0.8463333428000001
  461.87 0.8466522204000000
  461.89 0.8469330931000000
  461.92 0.8471743993000000
  461.94 0.8473745762000000
  461.96 0.8475320602999999
  461.98 0.8476452871000000
  462.00 0.8477127023000000
  462.02 0.8477572590000000
  462.04 0.8478009692000000
  462.06 0.8478438278000000
  462.09 0.8478858295000000
  462.11 0.8479269693000000
  462.13 0.8479672420000000
  462.15 0.8480066424000000
  462.17 0.8480451654000000
  462.19 0.8480828057000001
  462.21 0.8481195583000000
  462.24 0.8481554180000000
  462.26 0.8481903796000000
  462.28 0.8482244378000000
  462.30 0.8482575876000000
  462.32 0.8482898238000000
  462.34 0.8483211411000000
  462.36 0.8483515344000000
  462.38 0.8483809985000000
  462.41 0.8484095282000000
  462.43 0.8484371183000000
  462.45 0.8484637636000000
  462.47 0.8484894589000000
  462.49 0.8485141991000000
  462.51 0.8485379788000000
  462.53 0.8485607929000000
  462.56 0.8485826361000000
  462.58 0.8486035034000000
  462.60 0.8486233893000000
  462.62 0.8486422888000000
  462.64 0.8486601966000000
  462.66 0.8486771074000000
  462.68 0.8486930161000000
  462.71 0.8487079174000000
  462.73 0.8487218061000000
  462.75 0.8487346769000000
  462.77 0.8487465246000000
  462.79 0.8487573439000000
  462.81 0.8487671296000000
  462.83 0.8487758765000000
  462.86 0.8487835793000000
  462.88 0.8487902328000000
  462.90 0.8487958316000001
  462.92 0.8488003706000000
  462.94 0.8488038444000000
  462.96 0.8488062479000000
  462.98 0.8488075756000000
  463.01 0.8488065205999999
  463.03 0.8487789556000001
  463.05 0.8487169811000000
  463.07 0.8486221484000001
  463.09 0.8484960097000001
  463.11 0.8483401178000000
  463.13 0.8481560266000000
  463.16 0.8479452909000000
  463.18 0.8477094662000000
  463.20 0.8474501089000001
  463.22 0.8471687764000000
  463.24 0.8468670268000000
  463.26 0.8465464192000000
  463.28 0.8462085134000000
  463.31 0.8458548703000000
  463.33 0.8454870515000000
  463.35 0.8451066195000000
  463.37 0.8447151378000000
  463.39 0.8443141705000000
  463.41 0.8439052828000000
  463.43 0.8434900407000000
  463.46 0.8430700111000000
  463.48 0.8426467616000000
  463.50 0.8422218610000000
  463.52 0.8417968788000000
  463.54 0.8413733852000000
  463.56 0.8409529515000000
  463.59 0.8405371498000000
  463.61 0.8401275532000000
  463.63 0.8397257354000000
  463.65 0.8393332712000000
  463.67 0.8389517363000000
  463.69 0.8385827070000000
  463.71 0.8382277608000001
  463.74 0.8378884759000000
  463.76 0.8375664314000000
  463.78 0.8372632073000000
  463.80 0.8369803845000000
  463.82 0.8367195447000000
  463.84 0.8364822706000000
  463.86 0.8362701456000000
  463.89 0.8360847541999999
  463.91 0.8359276816000000
  463.93 0.8358005140000000
  463.95 0.8357048385000000
  463.97 0.8356422428000000
  463.99 0.8356143158000000
  464.02 0.8356150742000000
  464.04 0.8356250459000000
  464.06 0.8356430277000000
  464.08 0.8356688936000000
  464.10 0.8357025175000000
  464.12 0.8357437733000000
  464.14 0.8357925345000000
  464.17 0.8358486751000000
  464.19 0.8359120685000000
  464.21 0.8359825883000001
  464.23 0.8360601079000000
  464.25 0.8361445009000000
  464.27 0.8362356404000000
  464.30 0.8363333998000000
  464.32 0.8364376523000000
  464.34 0.8365482708999999
  464.36 0.8366651287000000
  464.38 0.8367880987000000
  464.40 0.8369170538000000
  464.43 0.8370518668000000
  464.45 0.8371924105000000
  464.47 0.8373385575000000
  464.49 0.8374901806000000
  464.51 0.8376471521000000
  464.53 0.8378093446000000
  464.55 0.8379766305000000
  464.58 0.8381488821999999
  464.60 0.8383259718000000
  464.62 0.8385077716000000
  464.64 0.8386941537000000
  464.66 0.8388849900999999
  464.68 0.8390801529000000
  464.71 0.8392795138000000
  464.73 0.8394829448000000
  464.75 0.8396903175000000
  464.77 0.8399015037000001
  464.79 0.8401163750000000
  464.81 0.8403348030000000
  464.84 0.8405566590000000
  464.86 0.8407818146000000
  464.88 0.8410101409000000
  464.90 0.8412415093000000
  464.92 0.8414757910000000
  464.94 0.8417128571000000
  464.96 0.8419525785000000
  464.99 0.8421948263000000
  465.01 0.8424424713000001
  465.03 0.8427261001000000
  465.05 0.8430526137000000
  465.07 0.8434205905000000
  465.09 0.8438286082000001
  465.12 0.8442752435999999
  465.14 0.8447590726000000
  465.16 0.8452786705000001
  465.18 0.8458326118000000
  465.20 0.8464194700000000
  465.22 0.8470378179000000
  465.25 0.8476862276000000
  465.27 0.8483632703000000
  465.29 0.8490675165000000
  465.31 0.8497975357000001
  465.33 0.8505518968000000
  465.35 0.8513291677000000
  465.38 0.8521279158000000
  465.40 0.8529467074000000
  465.42 0.8537841081000000
  465.44 0.8546386828000000
  465.46 0.8555089954000000
  465.48 0.8563936092000000
  465.51 0.8572910865000000
  465.53 0.8581999890000001
  465.55 0.8591188775000000
  465.57 0.8600463119000000
  465.59 0.8609808514000000
  465.61 0.8619210544000000
  465.64 0.8628654784000001
  465.66 0.8638126803000000
  465.68 0.8647612160000000
  465.70 0.8657096406000000
  465.72 0.8666565084000000
  465.74 0.8676003731000000
  465.77 0.8685397873000000
  465.79 0.8694733029000000
  465.81 0.8703994711000000
  465.83 0.8713168422000001
  465.85 0.8722239656000000
  465.87 0.8731193900000001
  465.90 0.8740016631999999
  465.92 0.8748693325000000
  465.94 0.8757209438000000
  465.96 0.8765550429000000
  465.98 0.8773701741000000
  466.00 0.8781657731000000
  466.03 0.8789638418000000
  466.05 0.8797738126000000
  466.07 0.8805948992000000
  466.09 0.8814263145000000
  466.11 0.8822672714000001
  466.14 0.8831169822000000
  466.16 0.8839746586000000
  466.18 0.8848395120000000
  466.20 0.8857107534999999
  466.22 0.8865875934000000
  466.24 0.8874692419000000
  466.27 0.8883549086000000
  466.29 0.8892438027000000
  466.31 0.8901351329000000
  466.33 0.8910281074000000
  466.35 0.8919219343000000
  466.37 0.8928158207000000
  466.40 0.8937089738000000
  466.42 0.8946006000000000
  466.44 0.8954899054000000
  466.46 0.8963760956000000
  466.48 0.8972583759000000
  466.50 0.8981359509000000
  466.53 0.8990080250000000
  466.55 0.8998738020000000
  466.57 0.9007324853000001
  466.59 0.9015832778000000
  466.61 0.9024253822000000
  466.64 0.9032580004000000
  466.66 0.9040803341000000
  466.68 0.9048915843999999
  466.70 0.9056909520999999
  466.72 0.9064776375000000
  466.74 0.9072508403000000
  466.77 0.9080097601000000
  466.79 0.9087535957000000
  466.81 0.9094815455000000
  466.83 0.9101928078000000
  466.85 0.9108865800000000
  466.88 0.9115620593000000
  466.90 0.9122184424999999
  466.92 0.9128549256000000
  466.94 0.9134707047000000
  466.96 0.9140649749999999
  466.98 0.9146369313000000
  467.01 0.9151862179000000
  467.03 0.9157206052000000
  467.05 0.9162434788000000
  467.07 0.9167552437000001
  467.09 0.9172563049000000
  467.12 0.9177470679000000
  467.14 0.9182279383000000
  467.16 0.9186993220000000
  467.18 0.9191616251000000
  467.20 0.9196152538000000
  467.22 0.9200606148000000
  467.25 0.9204981147000000
  467.27 0.9209281606000000
  467.29 0.9213511596000000
  467.31 0.9217675194000000
  467.33 0.9221776474000000
  467.36 0.9225819517000000
  467.38 0.9229808403999999
  467.40 0.9233747218000000
  467.42 0.9237640047000000
  467.44 0.9241490977000000
  467.46 0.9245304099000000
  467.49 0.9249083507000000
  467.51 0.9252833296000000
  467.53 0.9256557563000000
  467.55 0.9260260407000001
  467.57 0.9263945931999999
  467.60 0.9267618241000000
  467.62 0.9271281442000000
  467.64 0.9274939642000000
  467.66 0.9278596954000000
  467.68 0.9282257491000000
  467.70 0.9285925370000000
  467.73 0.9289604707000000
  467.75 0.9293299625000000
  467.77 0.9297014245000000
  467.79 0.9300752693000000
  467.81 0.9304519097000000
  467.84 0.9308317586000000
  467.86 0.9312152293000000
  467.88 0.9316027351000000
  467.90 0.9319946898000000
  467.92 0.9323915073000000
  467.95 0.9327936017000000
  467.97 0.9332013873000000
  467.99 0.9336152789000000
  468.01 0.9340360461000000
  468.03 0.9344656721000000
  468.06 0.9349039017000000
  468.08 0.9353501418000000
  468.10 0.9358037989000000
  468.12 0.9362642793000000
  468.14 0.9367309889000000
  468.16 0.9372033332000000
  468.19 0.9376807174000000
  468.21 0.9381625465000000
  468.23 0.9386482249000000
  468.25 0.9391371569000000
  468.27 0.9396287463000000
  468.30 0.9401223968000000
  468.32 0.9406175114000001
  468.34 0.9411134932000000
  468.36 0.9416097446000000
  468.38 0.9421056678000000
  468.41 0.9426006647000000
  468.43 0.9430941368000000
  468.45 0.9435854854000000
  468.47 0.9440741112000000
  468.49 0.9445594148999999
  468.52 0.9450407964999999
  468.54 0.9455176559000000
  468.56 0.9459893927000000
  468.58 0.9464554060000000
  468.60 0.9469150946000000
  468.63 0.9473678571000000
  468.65 0.9478130915000000
  468.67 0.9482501958000000
  468.69 0.9486785674000000
  468.71 0.9490976034000000
  468.74 0.9495067007000000
  468.76 0.9499052557000000
  468.78 0.9502926645999999
  468.80 0.9506683231000000
  468.82 0.9510316267000000
  468.85 0.9513819705000000
  468.87 0.9517187492000000
  468.89 0.9520413574000000
  468.91 0.9523491891000000
  468.93 0.9526416381000000
  468.96 0.9529180977000000
  468.98 0.9531779610000000
  469.00 0.9534206208000000
  469.02 0.9536540414000000
  469.04 0.9538877982000000
  469.07 0.9541216538000000
  469.09 0.9543553576000000
  469.11 0.9545886586000000
  469.13 0.9548213056000000
  469.15 0.9550530474000000
  469.18 0.9552836326000000
  469.20 0.9555128097000000
  469.22 0.9557403268000000
  469.24 0.9559659324000001
  469.26 0.9561893743000000
  469.29 0.9564104005000000
  469.31 0.9566287586000000
  469.33 0.9568441964000000
  469.35 0.9570564613000000
  469.37 0.9572653006000000
  469.40 0.9574704615000000
  469.42 0.9576716911000001
  469.44 0.9578687361000000
  469.46 0.9580613435000001
  469.48 0.9582492598000000
  469.51 0.9584322314000000
  469.53 0.9586100047000000
  469.55 0.9587823260000000
  469.57 0.9589489411000000
  469.59 0.9591095961000000
  469.62 0.9592640367000000
  469.64 0.9594120085000000
  469.66 0.9595532569000000
  469.68 0.9596875274000000
  469.70 0.9598145651000000
  469.73 0.9599341150000000
  469.75 0.9600459220000001
  469.77 0.9601497309000000
  469.79 0.9602452862999999
  469.81 0.9603323328000000
  469.84 0.9604106145000000
  469.86 0.9604798757000000
  469.88 0.9605398603999999
  469.90 0.9605903125000000
  469.92 0.9606309759000000
  469.95 0.9606615940000000
  469.97 0.9606819103000001
  469.99 0.9606916682000000
  470.01 0.9606909675999999
  470.04 0.9606813177000000
  470.06 0.9606632622000000
  470.08 0.9606371983000001
  470.10 0.9606035235000000
  470.12 0.9605626355000000
  470.15 0.9605149323000000
  470.17 0.9604608120000000
  470.19 0.9604006730000000
  470.21 0.9603349140000000
  470.23 0.9602639338000000
  470.26 0.9601881315000000
  470.28 0.9601079063000000
  470.30 0.9600236578000000
  470.32 0.9599357858000001
  470.34 0.9598446903000000
  470.37 0.9597507713000000
  470.39 0.9596544295000000
  470.41 0.9595560653000000
  470.43 0.9594560797000000
  470.46 0.9593548739000000
  470.48 0.9592528491000000
  470.50 0.9591504069000000
  470.52 0.9590479490000000
  470.54 0.9589458776000001
  470.57 0.9588445949000000
  470.59 0.9587445033000001
  470.61 0.9586460054000000
  470.63 0.9585495044000000
  470.65 0.9584554032000000
  470.68 0.9583641053000000
  470.70 0.9582760142000000
  470.72 0.9581915339000000
  470.74 0.9581110683000000
  470.77 0.9580350219000000
  470.79 0.9579637989999999
  470.81 0.9578978044000001
  470.83 0.9578374431000000
  470.85 0.9577831204000000
  470.88 0.9577352416000000
  470.90 0.9576942123000000
  470.92 0.9576604386000001
  470.94 0.9576343265000000
  470.97 0.9576162824000000
  470.99 0.9576067127000000
  471.01 0.9576058835000000
  471.03 0.9576127763000000
  471.05 0.9576268320000000
  471.08 0.9576477134000000
  471.10 0.9576750830000000
  471.12 0.9577086032000000
  471.14 0.9577479359000000
  471.16 0.9577927433000000
  471.19 0.9578426871000000
  471.21 0.9578974287000001
  471.23 0.9579566297000000
  471.25 0.9580199511000000
  471.28 0.9580870540000000
  471.30 0.9581575991000000
  471.32 0.9582312471000000
  471.34 0.9583076583000000
  471.36 0.9583864930000000
  471.39 0.9584674112000000
  471.41 0.9585500728000000
  471.43 0.9586341373000000
  471.45 0.9587192642000000
  471.48 0.9588051128000000
  471.50 0.9588913422000001
  471.52 0.9589776111000000
  471.54 0.9590635784000000
  471.56 0.9591489023999999
  471.59 0.9592332414000000
  471.61 0.9593162535999999
  471.63 0.9593975968000000
  471.65 0.9594769289000000
  471.68 0.9595539071000000
  471.70 0.9596281890000000
  471.72 0.9596994316000000
  471.74 0.9597672918000000
  471.76 0.9598314265000000
  471.79 0.9598914920000000
  471.81 0.9599471449000000
  471.83 0.9599980412000000
  471.85 0.9600438370000000
  471.88 0.9600841879000001
  471.90 0.9601187495000000
  471.92 0.9601471773000000
  471.94 0.9601691264000000
  471.97 0.9601842519000000
  471.99 0.9601922084000000
  472.01 0.9601912860000000
  472.03 0.9601711038000000
  472.05 0.9601303673000000
  472.08 0.9600700498000000
  472.10 0.9599911247000000
  472.12 0.9598945664000000
  472.14 0.9597813495000000
  472.17 0.9596524496000000
  472.19 0.9595088423000000
  472.21 0.9593515041000000
  472.23 0.9591814121000000
  472.26 0.9589995438000000
  472.28 0.9588068772000000
  472.30 0.9586043911000000
  472.32 0.9583930644999999
  472.34 0.9581738774000000
  472.37 0.9579478100000000
  472.39 0.9577158432000000
  472.41 0.9574789584000000
  472.43 0.9572381376000000
  472.46 0.9569943634000000
  472.48 0.9567486189000000
  472.50 0.9565018877000000
  472.52 0.9562551540000001
  472.55 0.9560094027000000
  472.57 0.9557656190000000
  472.59 0.9555247889000000
  472.61 0.9552878988000000
  472.63 0.9550559358000000
  472.66 0.9548298873000000
  472.68 0.9546107416000000
  472.70 0.9543994873000000
  472.72 0.9541971137000000
  472.75 0.9540046106000000
  472.77 0.9538229684000000
  472.79 0.9536531780000000
  472.81 0.9534962309000000
  472.84 0.9533531192000000
  472.86 0.9532248354000000
  472.88 0.9531123728999999
  472.90 0.9530167252000000
  472.93 0.9529388868000001
  472.95 0.9528798525000000
  472.97 0.9528406176999999
  472.99 0.9528221784999999
  473.01 0.9528227365000000
  473.04 0.9528330694000000
  473.06 0.9528521417000000
  473.08 0.9528797094000000
  473.10 0.9529155282000000
  473.13 0.9529593539000000
  473.15 0.9530109421000000
  473.17 0.9530700479999999
  473.19 0.9531364271000000
  473.22 0.9532098344000000
  473.24 0.9532900250000000
  473.26 0.9533767537000000
  473.28 0.9534697751000000
  473.31 0.9535688439000000
  473.33 0.9536737146000001
  473.35 0.9537841413000000
  473.37 0.9538998784000000
  473.40 0.9540206797000000
  473.42 0.9541462991000000
  473.44 0.9542764904000000
  473.46 0.9544110072000000
  473.48 0.9545496030000000
  473.51 0.9546920310000000
  473.53 0.9548380444000000
  473.55 0.9549873961999999
  473.57 0.9551398394000000
  473.60 0.9552951267000001
  473.62 0.9554530107000000
  473.64 0.9556132438000000
  473.66 0.9557755784999999
  473.69 0.9559397668000000
  473.71 0.9561055609000000
  473.73 0.9562727126000000
  473.75 0.9564409736000000
  473.78 0.9566100958000000
  473.80 0.9567798304000000
  473.82 0.9569499288000000
  473.84 0.9571201423000000
  473.87 0.9572902219000000
  473.89 0.9574599185000000
  473.91 0.9576289829000000
  473.93 0.9577971657000000
  473.96 0.9579642174000000
  473.98 0.9581298883000000
  474.00 0.9582939458000000
  474.02 0.9584646935000000
  474.05 0.9586487160000000
  474.07 0.9588453166999999
  474.09 0.9590537982000000
  474.11 0.9592734630000000
  474.14 0.9595036132000000
  474.16 0.9597435502000000
  474.18 0.9599925754999999
  474.20 0.9602499896000000
  474.23 0.9605150931999999
  474.25 0.9607871862000000
  474.27 0.9610655681000000
  474.29 0.9613495384000000
  474.32 0.9616383957000000
  474.34 0.9619314383999999
  474.36 0.9622279647000000
  474.38 0.9625272721000000
  474.41 0.9628286579000001
  474.43 0.9631314189000000
  474.45 0.9634348514000000
  474.47 0.9637382516000000
  474.50 0.9640409150000000
  474.52 0.9643421369000000
  474.54 0.9646412121000000
  474.56 0.9649374350000000
  474.59 0.9652300995000000
  474.61 0.9655184994000000
  474.63 0.9658019278000000
  474.65 0.9660796776000000
  474.68 0.9663510411000000
  474.70 0.9666153104000000
  474.72 0.9668717770000000
  474.74 0.9671197322000000
  474.77 0.9673584667000000
  474.79 0.9675872710000000
  474.81 0.9678054349000000
  474.83 0.9680122482000000
  474.86 0.9682070000000000
  474.88 0.9683889790000000
  474.90 0.9685574737000000
  474.92 0.9687117720000000
  474.95 0.9688511614000000
  474.97 0.9689749291000000
  474.99 0.9690823619000000
  475.01 0.9691761035999999
  475.04 0.9692680613000000
  475.06 0.9693592964000000
  475.08 0.9694497423000000
  475.10 0.9695393325000000
  475.13 0.9696280004000000
  475.15 0.9697156794000000
  475.17 0.9698023027000000
  475.19 0.9698878037000001
  475.22 0.9699721156000000
  475.24 0.9700551716000000
  475.26 0.9701369049000000
  475.29 0.9702172486000000
  475.31 0.9702961358000000
  475.33 0.9703734997000000
  475.35 0.9704492731000000
  475.38 0.9705233891000000
  475.40 0.9705957806000000
  475.42 0.9706663806000000
  475.44 0.9707351218000000
  475.47 0.9708019372000000
  475.49 0.9708667595000000
  475.51 0.9709295215000000
  475.53 0.9709901559000000
  475.56 0.9710485953000000
  475.58 0.9711047725000000
  475.60 0.9711586199000000
  475.62 0.9712100702000001
  475.65 0.9712590558999999
  475.67 0.9713055095000001
  475.69 0.9713493633000000
  475.71 0.9713905500000000
  475.74 0.9714290017000000
  475.76 0.9714646508000000
  475.78 0.9714974297000000
  475.81 0.9715272705000000
  475.83 0.9715541056000000
  475.85 0.9715778670000000
  475.87 0.9715984868999999
  475.90 0.9716158975000000
  475.92 0.9716300307000000
  475.94 0.9716408186000000
  475.96 0.9716481932000000
  475.99 0.9716520865000000
  476.01 0.9716512916000000
  476.03 0.9716356251000000
  476.05 0.9716032493000000
  476.08 0.9715548636000000
  476.10 0.9714911677000000
  476.12 0.9714128620000000
  476.15 0.9713206470000000
  476.17 0.9712152238000000
  476.19 0.9710972939000000
  476.21 0.9709675590000000
  476.24 0.9708267214000000
  476.26 0.9706754838000000
  476.28 0.9705145492000000
  476.30 0.9703446210000000
  476.33 0.9701664031000000
  476.35 0.9699805998000000
  476.37 0.9697879157000000
  476.39 0.9695890558000000
  476.42 0.9693847257000000
  476.44 0.9691756312000001
  476.46 0.9689624784999999
  476.49 0.9687459744000000
  476.51 0.9685268260000000
  476.53 0.9683057406000000
  476.55 0.9680834262000000
  476.58 0.9678605912000000
  476.60 0.9676379441000000
  476.62 0.9674161942000000
  476.64 0.9671960509000000
  476.67 0.9669782241000000
  476.69 0.9667634241000000
  476.71 0.9665523618000000
  476.74 0.9663457481000000
  476.76 0.9661442948000000
  476.78 0.9659487136000000
  476.80 0.9657597170000000
  476.83 0.9655780178000000
  476.85 0.9654043291000000
  476.87 0.9652393644000000
  476.89 0.9650838378000000
  476.92 0.9649384637000000
  476.94 0.9648039568000000
  476.96 0.9646810325000000
  476.99 0.9645704062000000
  477.01 0.9644718772000000
  477.03 0.9643756765000000
  477.05 0.9642790856000000
  477.08 0.9641822289000000
  477.10 0.9640852303000000
  477.12 0.9639882143000000
  477.14 0.9638913053000000
  477.17 0.9637946275000000
  477.19 0.9636983057000000
  477.21 0.9636024643000000
  477.24 0.9635072280000000
  477.26 0.9634127215000000
  477.28 0.9633190696000000
  477.30 0.9632263971000000
  477.33 0.9631348291000000
  477.35 0.9630444905000000
  477.37 0.9629555064000000
  477.40 0.9628680020000000
  477.42 0.9627821024000000
  477.44 0.9626979330000000
  477.46 0.9626156191000000
  477.49 0.9625352862000000
  477.51 0.9624570598000000
  477.53 0.9623810655000000
  477.55 0.9623074288000000
  477.58 0.9622362756000000
  477.60 0.9621677316000000
  477.62 0.9621019228000000
  477.65 0.9620389750000000
  477.67 0.9619790142000000
  477.69 0.9619221666000000
  477.71 0.9618685583000000
  477.74 0.9618183155000000
  477.76 0.9617715645000000
  477.78 0.9617284317000000
  477.81 0.9616890436000000
  477.83 0.9616535267000000
  477.85 0.9616220075000000
  477.87 0.9615946127000000
  477.90 0.9615714690000000
  477.92 0.9615527033000000
  477.94 0.9615384425000000
  477.97 0.9615288134000000
  477.99 0.9615239432000000
  478.01 0.9615254273000000
  478.03 0.9615419053000001
  478.06 0.9615743753000000
  478.08 0.9616223662000000
  478.10 0.9616854067000000
  478.13 0.9617630252000000
  478.15 0.9618547499000000
  478.17 0.9619601085000000
  478.19 0.9620786287999999
  478.22 0.9622098381000000
  478.24 0.9623532633000000
  478.26 0.9625084314000000
  478.29 0.9626748687000000
  478.31 0.9628521016000000
  478.33 0.9630396559000000
  478.35 0.9632370575000000
  478.38 0.9634438316000000
  478.40 0.9636595036000000
  478.42 0.9638835981000000
  478.45 0.9641156398000000
  478.47 0.9643551531000000
  478.49 0.9646016620000000
  478.51 0.9648546902000000
  478.54 0.9651137614000000
  478.56 0.9653783986000000
  478.58 0.9656481249000000
  478.61 0.9659224628999999
  478.63 0.9662009350000000
  478.65 0.9664830634000000
  478.68 0.9667683700000000
  478.70 0.9670563762000000
  478.72 0.9673466034000000
  478.74 0.9676385727000000
  478.77 0.9679318048000000
  478.79 0.9682258201000000
  478.81 0.9685201389000000
  478.84 0.9688142811000000
  478.86 0.9691077664000000
  478.88 0.9694001141000000
  478.90 0.9696908433000000
  478.93 0.9699794729000000
  478.95 0.9702655213000000
  478.97 0.9705485069999999
  479.00 0.9708279478000000
  479.02 0.9711093320999999
  479.04 0.9714033736000000
  479.06 0.9717097762000000
  479.09 0.9720279807000000
  479.11 0.9723574275000000
  479.13 0.9726975569000000
  479.16 0.9730478085000001
  479.18 0.9734076221000000
  479.20 0.9737764366000000
  479.23 0.9741536911000001
  479.25 0.9745388240000000
  479.27 0.9749312736000000
  479.29 0.9753304778000000
  479.32 0.9757358741000000
  479.34 0.9761468997000000
  479.36 0.9765629917000000
  479.39 0.9769835866000000
  479.41 0.9774081207000000
  479.43 0.9778360299000000
  479.46 0.9782667497999999
  479.48 0.9786997158000000
  479.50 0.9791343629000000
  479.52 0.9795701256000000
  479.55 0.9800064383000000
  479.57 0.9804427350000000
  479.59 0.9808784494000000
  479.62 0.9813130148000000
  479.64 0.9817458642000000
  479.66 0.9821764304000000
  479.69 0.9826041456000000
  479.71 0.9830284419999999
  479.73 0.9834487513000000
  479.75 0.9838645048000000
  479.78 0.9842751336000000
  479.80 0.9846800684000000
  479.82 0.9850787396000000
  479.85 0.9854705774000000
  479.87 0.9858550114000000
  479.89 0.9862314712000000
  479.92 0.9865993857000001
  479.94 0.9869581837000000
  479.96 0.9873072938000000
  479.98 0.9876461439000001
  480.01 0.9879752626000000
  480.03 0.9883083373000000
  480.05 0.9886490432000000
  480.08 0.9889966401000000
  480.10 0.9893503874000000
  480.12 0.9897095439000000
  480.15 0.9900733680000000
  480.17 0.9904411179000000
  480.19 0.9908120510000000
  480.22 0.9911854245000000
  480.24 0.9915604953000000
  480.26 0.9919365194999999
  480.28 0.9923127532000000
  480.31 0.9926884517000000
  480.33 0.9930628700000000
  480.35 0.9934352628000001
  480.38 0.9938048843000000
  480.40 0.9941709880000000
  480.42 0.9945328275000000
  480.45 0.9948896555000000
  480.47 0.9952407245000000
  480.49 0.9955852865000000
  480.52 0.9959225930000000
  480.54 0.9962518953000000
  480.56 0.9965724441000000
  480.58 0.9968834896000000
  480.61 0.9971842817000000
  480.63 0.9974740698000000
  480.65 0.9977521029999999
  480.68 0.9980176297000000
  480.70 0.9982698982000000
  480.72 0.9985081561000000
  480.75 0.9987316506000000
  480.77 0.9989396287000000
  480.79 0.9991313367000000
  480.82 0.9993060204999999
  480.84 0.9994629256999999
  480.86 0.9996012975000000
  480.88 0.9997203804000000
  480.91 0.9998194186000000
  480.93 0.9998976561000000
  480.95 0.9999543360000001
  480.98 0.9999887015000000
  481.00 0.9999999986000000
  481.02 0.9999967594000000
  481.05 0.9999873724000000
  481.07 0.9999719436000000
  481.09 0.9999505789000001
  481.12 0.9999233846000000
  481.14 0.9998904667000000
  481.16 0.9998519313999999
  481.19 0.9998078850000000
  481.21 0.9997584339000000
  481.23 0.9997036845000000
  481.26 0.9996437431000000
  481.28 0.9995787164000000
  481.30 0.9995087108000000
  481.32 0.9994338331000000
  481.35 0.9993541900000000
  481.37 0.9992698882000000
  481.39 0.9991810345000000
  481.42 0.9990877358000000
  481.44 0.9989900992000000
  481.46 0.9988882314999999
  481.49 0.9987822399000000
  481.51 0.9986722316000000
  481.53 0.9985583137000000
  481.56 0.9984405934000000
  481.58 0.9983191782000000
  481.60 0.9981941753000000
  481.63 0.9980656924000000
  481.65 0.9979338367000000
  481.67 0.9977987161000000
  481.70 0.9976604380000000
  481.72 0.9975191101999999
  481.74 0.9973748404000000
  481.77 0.9972277365000000
  481.79 0.9970779064000000
  481.81 0.9969254580000000
  481.83 0.9967704992999999
  481.86 0.9966131384000000
  481.88 0.9964534835000000
  481.90 0.9962916427000000
  481.93 0.9961277243000000
  481.95 0.9959618366000000
  481.97 0.9957940881000000
  482.00 0.9956245872000000
  482.02 0.9954431074000000
  482.04 0.9952344675000000
  482.07 0.9949993257999999
  482.09 0.9947385073000000
  482.11 0.9944528373000000
  482.14 0.9941431419000000
  482.16 0.9938102475000000
  482.18 0.9934549808000001
  482.21 0.9930781692000000
  482.23 0.9926806406000001
  482.25 0.9922632233000001
  482.28 0.9918267460000000
  482.30 0.9913720381000000
  482.32 0.9908999293000000
  482.35 0.9904112497999999
  482.37 0.9899068304000000
  482.39 0.9893875022000000
  482.42 0.9888540970000000
  482.44 0.9883074469000001
  482.46 0.9877483845000000
  482.49 0.9871777430999999
  482.51 0.9865963562000000
  482.53 0.9860050579000000
  482.56 0.9854046827000000
  482.58 0.9847960659000000
  482.60 0.9841800429000001
  482.63 0.9835574497000000
  482.65 0.9829291229000000
  482.67 0.9822958996000000
  482.70 0.9816586170000000
  482.72 0.9810181134000000
  482.74 0.9803752271000000
  482.77 0.9797307971000000
  482.79 0.9790856627000000
  482.81 0.9784406641000000
  482.84 0.9777966414000000
  482.86 0.9771544358000001
  482.88 0.9765148884000000
  482.91 0.9758788413000000
  482.93 0.9752471367000000
  482.95 0.9746206175000000
  482.98 0.9740001270999999
  483.00 0.9733865092000000
  483.02 0.9727739310000000
  483.05 0.9721541592000000
  483.07 0.9715272483000000
  483.09 0.9708932860000000
  483.12 0.9702523601000000
  483.14 0.9696045581000000
  483.16 0.9689499680000000
  483.19 0.9682886775000000
  483.21 0.9676207744999999
  483.23 0.9669463471000000
  483.26 0.9662654831000000
  483.28 0.9655782707000000
  483.30 0.9648847979000000
  483.33 0.9641851530000000
  483.35 0.9634794240000000
  483.37 0.9627676992999999
  483.40 0.9620500671000000
  483.42 0.9613266159000000
  483.44 0.9605974340000000
  483.47 0.9598626099000001
  483.49 0.9591222322000000
  483.51 0.9583763893000000
  483.54 0.9576251699000000
  483.56 0.9568686626000000
  483.58 0.9561069563000000
  483.61 0.9553401396000000
  483.63 0.9545683014000000
  483.65 0.9537915306000000
  483.68 0.9530099161000000
  483.70 0.9522235469000000
  483.72 0.9514325119000000
  483.75 0.9506369004000000
  483.77 0.9498368014000000
  483.79 0.9490323042000000
  483.82 0.9482234979000000
  483.84 0.9474104719000001
  483.86 0.9465933155000000
  483.89 0.9457721180999999
  483.91 0.9449469692000000
  483.93 0.9441179582000000
  483.96 0.9432851748000000
  483.98 0.9424487085000000
  484.00 0.9416086415000000
  484.03 0.9407646216000000
  484.05 0.9399163055999999
  484.07 0.9390635387000000
  484.10 0.9382061661000000
  484.12 0.9373440327000000
  484.14 0.9364769835000000
  484.17 0.9356048634000000
  484.19 0.9347275171000000
  484.21 0.9338447894000000
  484.24 0.9329565248000000
  484.26 0.9320625679000000
  484.28 0.9311627629000000
  484.31 0.9302569544000000
  484.33 0.9293449864000000
  484.36 0.9284267032000000
  484.38 0.9275019488000000
  484.40 0.9265705671000000
  484.43 0.9256324021000000
  484.45 0.9246872975000000
  484.47 0.9237350970000000
  484.50 0.9227756442000000
  484.52 0.9218087826000000
  484.54 0.9208343556000000
  484.57 0.9198522067000000
  484.59 0.9188621789000000
  484.61 0.9178641155000000
  484.64 0.9168578595000000
  484.66 0.9158432539000000
  484.68 0.9148201416000000
  484.71 0.9137883653000000
  484.73 0.9127477678000000
  484.75 0.9116981916000000
  484.78 0.9106394793000000
  484.80 0.9095714733000000
  484.82 0.9084940159000000
  484.85 0.9074069494000000
  484.87 0.9063101159000000
  484.90 0.9052033575000000
  484.92 0.9040865162000000
  484.94 0.9029594337000000
  484.97 0.9018219520000000
  484.99 0.9006739127000000
  485.01 0.8995141111000000
  485.04 0.8983375570000000
  485.06 0.8971439339000000
  485.08 0.8959336058000000
  485.11 0.8947069372000001
  485.13 0.8934642926000000
  485.15 0.8922060369000000
  485.18 0.8909325350000000
  485.20 0.8896441521000000
  485.22 0.8883412538000000
  485.25 0.8870242057000000
  485.27 0.8856933736000000
  485.30 0.8843491237000000
  485.32 0.8829918221000000
  485.34 0.8816218355000000
  485.37 0.8802395306000000
  485.39 0.8788452743000000
  485.41 0.8774394337000000
  485.44 0.8760223763000000
  485.46 0.8745944695000000
  485.48 0.8731560813000000
  485.51 0.8717075797000000
  485.53 0.8702493328000001
  485.55 0.8687817091000000
  485.58 0.8673050772999999
  485.60 0.8658198062000000
  485.63 0.8643262650000000
  485.65 0.8628248230000000
  485.67 0.8613158496000000
  485.70 0.8597997147000001
  485.72 0.8582767882000000
  485.74 0.8567474402000000
  485.77 0.8552120412000001
  485.79 0.8536709617000000
  485.81 0.8521245726000000
  485.84 0.8505732450000000
  485.86 0.8490173500000000
  485.89 0.8474572592000000
  485.91 0.8458933442000000
  485.93 0.8443259770000000
  485.96 0.8427555297000000
  485.98 0.8411823746000000
  486.00 0.8396067560000000
  486.03 0.8380199997000000
  486.05 0.8364170592000000
  486.07 0.8347984855000000
  486.10 0.8331648300000000
  486.12 0.8315166443999999
  486.14 0.8298544806000000
  486.17 0.8281788910000000
  486.19 0.8264904283000000
  486.22 0.8247896454000000
  486.24 0.8230770957000000
  486.26 0.8213533327000000
  486.29 0.8196189104000000
  486.31 0.8178743830000000
  486.33 0.8161203052000000
  486.36 0.8143572320000000
  486.38 0.8125857184000000
  486.40 0.8108063202000000
  486.43 0.8090195931000000
  486.45 0.8072260935000000
  486.48 0.8054263778000000
  486.50 0.8036210029999999
  486.52 0.8018105262000000
  486.55 0.7999955050000001
  486.57 0.7981764971999999
  486.59 0.7963540609000000
  486.62 0.7945287548000000
  486.64 0.7927011375000000
  486.67 0.7908717684000000
  486.69 0.7890412067000000
  486.71 0.7872100125000000
  486.74 0.7853787457000000
  486.76 0.7835479668999999
  486.78 0.7817182368000000
  486.81 0.7798901166000000
  486.83 0.7780641676000000
  486.85 0.7762409518000000
  486.88 0.7744210311000000
  486.90 0.7726049681000000
  486.93 0.7707933254000000
  486.95 0.7689866662000000
  486.97 0.7671855538000000
  487.00 0.7653905521000000
  487.02 0.7635963829000000
  487.04 0.7617944666000001
  487.07 0.7599852006000000
  487.09 0.7581690894999999
  487.12 0.7563466379000000
  487.14 0.7545183509000000
  487.16 0.7526847337000000
  487.19 0.7508462919000000
  487.21 0.7490035315000000
  487.23 0.7471569587000000
  487.26 0.7453070799000000
  487.28 0.7434544020000000
  487.31 0.7415994320000000
  487.33 0.7397426773000000
  487.35 0.7378846456000000
  487.38 0.7360258449000000
  487.40 0.7341667834000000
  487.42 0.7323079697000000
  487.45 0.7304499128000000
  487.47 0.7285931217000000
  487.50 0.7267381059000000
  487.52 0.7248853753000000
  487.54 0.7230354398000000
  487.57 0.7211888098000000
  487.59 0.7193459960000000
  487.61 0.7175075093000000
  487.64 0.7156738610000000
  487.66 0.7138455627000000
  487.69 0.7120231261000000
  487.71 0.7102070635000000
  487.73 0.7083978873000000
  487.76 0.7065961103000000
  487.78 0.7048022455000000
  487.80 0.7030168062000000
  487.83 0.7012403061000000
  487.85 0.6994732592000000
  487.88 0.6977161798000000
  487.90 0.6959695822000000
  487.92 0.6942339815000000
  487.95 0.6925098928000000
  487.97 0.6907978314000000
  488.00 0.6890983133000000
  488.02 0.6874109888000000
  488.04 0.6857341158000000
  488.07 0.6840672548000000
  488.09 0.6824100118999999
  488.11 0.6807619932000000
  488.14 0.6791228043999999
  488.16 0.6774920510000000
  488.19 0.6758693383000000
  488.21 0.6742542714000000
  488.23 0.6726464551000000
  488.26 0.6710454941000000
  488.28 0.6694509926000000
  488.31 0.6678625549000000
  488.33 0.6662797847000000
  488.35 0.6647022859000000
  488.38 0.6631296618000000
  488.40 0.6615615156000000
  488.42 0.6599974503000000
  488.45 0.6584370686000000
  488.47 0.6568799730000000
  488.50 0.6553257659000000
  488.52 0.6537740492000000
  488.54 0.6522244247000000
  488.57 0.6506764940999999
  488.59 0.6491298586000001
  488.62 0.6475841193000000
  488.64 0.6460388772000000
  488.66 0.6444937328000000
  488.69 0.6429482866000000
  488.71 0.6414021387000000
  488.73 0.6398548890000000
  488.76 0.6383061373000000
  488.78 0.6367554830000000
  488.81 0.6352025253000000
  488.83 0.6336468632000000
  488.85 0.6320880955000000
  488.88 0.6305258207000000
  488.90 0.6289596371000000
  488.93 0.6273891427000000
  488.95 0.6258139354000000
  488.97 0.6242336127000000
  489.00 0.6226477719000000
  489.02 0.6210605932000000
  489.05 0.6194783976000000
  489.07 0.6179008309000000
  489.09 0.6163274793000000
  489.12 0.6147579290000000
  489.14 0.6131917654000000
  489.16 0.6116285741000000
  489.19 0.6100679404000000
  489.21 0.6085094492000001
  489.24 0.6069526852000000
  489.26 0.6053972329000000
  489.28 0.6038426767000000
  489.31 0.6022886004000000
  489.33 0.6007345879000000
  489.36 0.5991802226000000
  489.38 0.5976250879000000
  489.40 0.5960687668000000
  489.43 0.5945108419000000
  489.45 0.5929508959999999
  489.48 0.5913885112000000
  489.50 0.5898232697000000
  489.52 0.5882547532000000
  489.55 0.5866825432000000
  489.57 0.5851062211000000
  489.60 0.5835253680000000
  489.62 0.5819395646000000
  489.64 0.5803483916000000
  489.67 0.5787514292000000
  489.69 0.5771482576000000
  489.72 0.5755384565000000
  489.74 0.5739216056000001
  489.76 0.5722972842000000
  489.79 0.5706650714000000
  489.81 0.5690245461000000
  489.84 0.5673752868000000
  489.86 0.5657168719000000
  489.88 0.5640488795000000
  489.91 0.5623708875000000
  489.93 0.5606824734000000
  489.96 0.5589832147000000
  489.98 0.5572726884000000
  490.00 0.5555506558000000
  490.03 0.5538254450000000
  490.05 0.5521012722000000
  490.08 0.5503774859000000
  490.10 0.5486534344000000
  490.12 0.5469284654000000
  490.15 0.5452019264000000
  490.17 0.5434731645999999
  490.20 0.5417415264000000
  490.22 0.5400063583000000
  490.24 0.5382670061000000
  490.27 0.5365228154000000
  490.29 0.5347731312000000
  490.32 0.5330172984000000
  490.34 0.5312546613000000
  490.36 0.5294845639000000
  490.39 0.5277063497000000
  490.41 0.5259193621000000
  490.44 0.5241229437000000
  490.46 0.5223164371000000
  490.48 0.5204991843000000
  490.51 0.5186705269000000
  490.53 0.5168298063000000
  490.56 0.5149763632000000
  490.58 0.5131095382999999
  490.60 0.5112286717000000
  490.63 0.5093331030000000
  490.65 0.5074221717000000
  490.68 0.5054952166000000
  490.70 0.5035515763000000
  490.73 0.5015905890000000
  490.75 0.4996115926000000
  490.77 0.4976139243000000
  490.80 0.4955969213000000
  490.82 0.4935599200000000
  490.85 0.4915022569000000
  490.87 0.4894232676000000
  490.89 0.4873222878000000
  490.92 0.4851986523000000
  490.94 0.4830516960000000
  490.97 0.4808807530000000
  490.99 0.4786851574000000
  491.01 0.4764606250000000
  491.04 0.4741925283000000
  491.06 0.4718808076000000
  491.09 0.4695270902000000
  491.11 0.4671330041000000
  491.14 0.4647001785000000
  491.16 0.4622302433000000
  491.18 0.4597248297000000
  491.21 0.4571855695000000
  491.23 0.4546140958000000
  491.26 0.4520120424000000
  491.28 0.4493810442000000
  491.30 0.4467227371000000
  491.33 0.4440387578000000
  491.35 0.4413307442000000
  491.38 0.4386003349000000
  491.40 0.4358491697000000
  491.42 0.4330788893000000
  491.45 0.4302911353000000
  491.47 0.4274875503000000
  491.50 0.4246697779000000
  491.52 0.4218394628000000
  491.55 0.4189982503000000
  491.57 0.4161477871000000
  491.59 0.4132897206000000
  491.62 0.4104256992000000
  491.64 0.4075573724000000
  491.67 0.4046863906000000
  491.69 0.4018144051000000
  491.71 0.3989430682000000
  491.74 0.3960740334000000
  491.76 0.3932089549000000
  491.79 0.3903494880000000
  491.81 0.3874972889000000
  491.84 0.3846540148000000
  491.86 0.3818213239000000
  491.88 0.3790008755000000
  491.91 0.3761943297000000
  491.93 0.3734033476000000
  491.96 0.3706295914000000
  491.98 0.3678747241000000
  492.00 0.3651398970000000
  492.03 0.3624099705000000
  492.05 0.3596773611000000
  492.08 0.3569422044000000
  492.10 0.3542046358000000
  492.13 0.3514647909000000
  492.15 0.3487228056000000
  492.17 0.3459788156000000
  492.20 0.3432329568000000
  492.22 0.3404853651000000
  492.25 0.3377361766000000
  492.27 0.3349855274000000
  492.30 0.3322335537000000
  492.32 0.3294803918000000
  492.34 0.3267261781000000
  492.37 0.3239710489000000
  492.39 0.3212151409000000
  492.42 0.3184585906000000
  492.44 0.3157015347000000
  492.47 0.3129441100000000
  492.49 0.3101864533000000
  492.51 0.3074287015000000
  492.54 0.3046709917000000
  492.56 0.3019134610000000
  492.59 0.2991562465000000
  492.61 0.2963994854000000
  492.64 0.2936433152000000
  492.66 0.2908878732000000
  492.68 0.2881332969000000
  492.71 0.2853797238000000
  492.73 0.2826272918000000
  492.76 0.2798761384000000
  492.78 0.2771264015000000
  492.81 0.2743782191000000
  492.83 0.2716317290000000
  492.85 0.2688870694000000
  492.88 0.2661443784000000
  492.90 0.2634037943000000
  492.93 0.2606654552000000
  492.95 0.2579294998000000
  492.98 0.2551960663000000
  493.00 0.2524652934000000
  493.02 0.2497233821000000
  493.05 0.2469563669000000
  493.07 0.2441662735000000
  493.10 0.2413551377000000
  493.12 0.2385249964000000
  493.15 0.2356778880000000
  493.17 0.2328158517000000
  493.19 0.2299409283000000
  493.22 0.2270551595000000
  493.24 0.2241605885000000
  493.27 0.2212592594000000
  493.29 0.2183532178000000
  493.32 0.2154445103000000
  493.34 0.2125351848000000
  493.36 0.2096272903000000
  493.39 0.2067228774000000
  493.41 0.2038239973000000
  493.44 0.2009327030000000
  493.46 0.1980510483000000
  493.49 0.1951810884000000
  493.51 0.1923248797000000
  493.53 0.1894844799000000
  493.56 0.1866619478000000
  493.58 0.1838593433000000
  493.61 0.1810787278000000
  493.63 0.1783221637000000
  493.66 0.1755917148000000
  493.68 0.1728894459000000
  493.71 0.1702174233000000
  493.73 0.1675777142000000
  493.75 0.1649723873000000
  493.78 0.1624035123000000
  493.80 0.1598731604000000
  493.83 0.1573834037000000
  493.85 0.1549363158000000
  493.88 0.1525339713000000
  493.90 0.1501784462000000
  493.92 0.1478718177000000
  493.95 0.1456161641000000
  493.97 0.1434135651000000
  494.00 0.1412661014000000
  494.02 0.1391557556000000
  494.05 0.1370559849000000
  494.07 0.1349672574000000
  494.10 0.1328902138000000
  494.12 0.1308254950000000
  494.14 0.1287737423000000
  494.17 0.1267355974000000
  494.19 0.1247117022000000
  494.22 0.1227026994000000
  494.24 0.1207092315000000
  494.27 0.1187319420000000
  494.29 0.1167714742000000
  494.32 0.1148284722000000
  494.34 0.1129035804000000
  494.36 0.1109974434000000
  494.39 0.1091107063000000
  494.41 0.1072440146000000
  494.44 0.1053980142000000
  494.46 0.1035733512000000
  494.49 0.1017706724000000
  494.51 0.0999906247300000
  494.54 0.0982338555500000
  494.56 0.0965010126600000
  494.58 0.0947927441900000
  494.61 0.0931096986900000
  494.63 0.0914525250600000
  494.66 0.0898218726000000
  494.68 0.0882183910000000
  494.71 0.0866427303200000
  494.73 0.0850955410100000
  494.76 0.0835774739100000
  494.78 0.0820891802100000
  494.80 0.0806313115400000
  494.83 0.0792045198700000
  494.85 0.0778094575700000
  494.88 0.0764467773900000
  494.90 0.0751171324800000
  494.93 0.0738211763500000
  494.95 0.0725595629200000
  494.98 0.0713329464800000
  495.00 0.0701419767900000
  495.02 0.0689746748200000
  495.05 0.0678196766500000
  495.07 0.0666771194000000
  495.10 0.0655471402600000
  495.12 0.0644298765100000
  495.15 0.0633254655100000
  495.17 0.0622340446800000
  495.20 0.0611557515600000
  495.22 0.0600907237400000
  495.25 0.0590390989000000
  495.27 0.0580010147900000
  495.29 0.0569766092700000
  495.32 0.0559660202400000
  495.34 0.0549693857200000
  495.37 0.0539868437900000
  495.39 0.0530185326100000
  495.42 0.0520645904200000
  495.44 0.0511251555500000
  495.47 0.0502003664100000
  495.49 0.0492903614800000
  495.52 0.0483952793300000
  495.54 0.0475152586200000
  495.56 0.0466504380700000
  495.59 0.0458009565000000
  495.61 0.0449669528000000
  495.64 0.0441485659400000
  495.66 0.0433459349800000
  495.69 0.0425591990600000
  495.71 0.0417884973900000
  495.74 0.0410339692800000
  495.76 0.0402957541100000
  495.79 0.0395739913300000
  495.81 0.0388688205000000
  495.83 0.0381803812400000
  495.86 0.0375088132600000
  495.88 0.0368542563400000
  495.91 0.0362168503600000
  495.93 0.0355967352800000
  495.96 0.0349940511200000
  495.98 0.0344089380000000
  496.01 0.0338411324500000
  496.03 0.0332839559500000
  496.06 0.0327349515600000
  496.08 0.0321940574000000
  496.11 0.0316612115600000
  496.13 0.0311363520700000
  496.15 0.0306194169300000
  496.18 0.0301103441200000
  496.20 0.0296090715600000
  496.23 0.0291155371400000
  496.25 0.0286296787300000
  496.28 0.0281514341200000
  496.30 0.0276807411000000
  496.33 0.0272175374200000
  496.35 0.0267617607600000
  496.38 0.0263133488100000
  496.40 0.0258722391800000
  496.43 0.0254383694600000
  496.45 0.0250116772100000
  496.48 0.0245920999300000
  496.50 0.0241795751100000
  496.52 0.0237740401800000
  496.55 0.0233754325500000
  496.57 0.0229836895600000
  496.60 0.0225987485600000
  496.62 0.0222205468100000
  496.65 0.0218490215800000
  496.67 0.0214841100700000
  496.70 0.0211257494500000
  496.72 0.0207738768600000
  496.75 0.0204284293900000
  496.77 0.0200893441000000
  496.80 0.0197565580100000
  496.82 0.0194300081000000
  496.85 0.0191096313200000
  496.87 0.0187953645700000
  496.89 0.0184871447100000
  496.92 0.0181849085800000
  496.94 0.0178885929700000
  496.97 0.0175981346200000
  496.99 0.0173134702600000
  497.02 0.0170339296200000
  497.04 0.0167578614400000
  497.07 0.0164851758900000
  497.09 0.0162158718500000
  497.12 0.0159499481600000
  497.14 0.0156874036900000
  497.17 0.0154282373000000
  497.19 0.0151724478400000
  497.22 0.0149200341700000
  497.24 0.0146709951500000
  497.27 0.0144253296400000
  497.29 0.0141830364700000
  497.31 0.0139441145100000
  497.34 0.0137085626200000
  497.36 0.0134763796300000
  497.39 0.0132475644000000
  497.41 0.0130221157800000
  497.44 0.0128000326200000
  497.46 0.0125813137500000
  497.49 0.0123659580400000
  497.51 0.0121539643200000
  497.54 0.0119453314300000
  497.56 0.0117400582300000
  497.59 0.0115381435400000
  497.61 0.0113395862200000
  497.64 0.0111443851000000
  497.66 0.0109525390200000
  497.69 0.0107640468200000
  497.71 0.0105789073300000
  497.74 0.0103971193900000
  497.76 0.0102186818400000
  497.78 0.0100435935100000
  497.81 0.0098718532310000
  497.83 0.0097034598350000
  497.86 0.0095384121540000
  497.88 0.0093767090170000
  497.91 0.0092183492530000
  497.93 0.0090633316910000
  497.96 0.0089116551560000
  497.98 0.0087633184760000
  498.01 0.0086182313750000
  498.03 0.0084751560460000
  498.06 0.0083337030900000
  498.08 0.0081938815100000
  498.11 0.0080557003150000
  498.13 0.0079191685180000
  498.16 0.0077842951370000
  498.18 0.0076510891960000
  498.21 0.0075195597250000
  498.23 0.0073897157570000
  498.26 0.0072615663330000
  498.28 0.0071351204980000
  498.31 0.0070103873010000
  498.33 0.0068873757980000
  498.36 0.0067660950490000
  498.38 0.0066465541210000
  498.41 0.0065287620850000
  498.43 0.0064127280170000
  498.45 0.0062984609990000
  498.48 0.0061859701180000
  498.50 0.0060752644650000
  498.53 0.0059663531400000
  498.55 0.0058592452450000
  498.58 0.0057539498870000
  498.60 0.0056504761800000
  498.63 0.0055488332430000
  498.65 0.0054490302010000
  498.68 0.0053510761810000
  498.70 0.0052549803200000
  498.73 0.0051607517560000
  498.75 0.0050683996350000
  498.78 0.0049779331080000
  498.80 0.0048893613300000
  498.83 0.0048026934620000
  498.85 0.0047179386720000
  498.88 0.0046351061300000
  498.90 0.0045542050140000
  498.93 0.0044752445060000
  498.95 0.0043982337940000
  498.98 0.0043231820710000
  499.00 0.0042500949190000
  499.03 0.0041783347630000
  499.05 0.0041074306140000
  499.08 0.0040373870930000
  499.10 0.0039682088230000
  499.13 0.0038999004290000
  499.15 0.0038324665400000
  499.18 0.0037659117870000
  499.20 0.0037002408040000
  499.23 0.0036354582280000
  499.25 0.0035715686970000
  499.28 0.0035085768540000
  499.30 0.0034464873430000
  499.33 0.0033853048120000
  499.35 0.0033250339110000
  499.38 0.0032656792920000
  499.40 0.0032072456110000
  499.43 0.0031497375260000
  499.45 0.0030931596980000
  499.48 0.0030375167910000
  499.50 0.0029828134700000
  499.53 0.0029290544060000
  499.55 0.0028762442690000
  499.58 0.0028243877340000
  499.60 0.0027734894780000
  499.63 0.0027235541820000
  499.65 0.0026745865270000
  499.68 0.0026265911990000
  499.70 0.0025795728870000
  499.73 0.0025335362800000
  499.75 0.0024884860720000
  499.78 0.0024444269600000
  499.80 0.0024013636430000
  499.83 0.0023593008220000
  499.85 0.0023182432010000
  499.88 0.0022781954880000
  499.90 0.0022391623930000
  499.93 0.0022011486280000
  499.95 0.0021641589090000
  499.98 0.0021281979530000
  500.00 0.0020932704810000
  500.03 0.0020589888100000
  500.05 0.0020249724330000
  500.08 0.0019912368510000
  500.10 0.0019577975740000
  500.13 0.0019246701210000
  500.15 0.0018918700180000
  500.18 0.0018594128040000
  500.20 0.0018273140260000
  500.23 0.0017955892380000
  500.25 0.0017642540070000
  500.28 0.0017333239060000
  500.30 0.0017028145200000
  500.33 0.0016727414420000
  500.35 0.0016431202730000
  500.38 0.0016139666270000
  500.40 0.0015852961240000
  500.43 0.0015571243940000
  500.45 0.0015294670780000
  500.48 0.0015023398240000
  500.50 0.0014757582920000
  500.53 0.0014497381480000
  500.55 0.0014242950700000
  500.58 0.0013994447460000
  500.60 0.0013752028690000
  500.63 0.0013515851470000
  500.65 0.0013286072940000
  500.68 0.0013062850340000
  500.70 0.0012846341000000
  500.73 0.0012636702350000
  500.75 0.0012434091920000
  500.78 0.0012238667320000
  500.80 0.0012050586270000
  500.83 0.0011870006570000
  500.85 0.0011697086110000
  500.88 0.0011531982900000
  500.90 0.0011374855020000
  500.93 0.0011225860650000
  500.95 0.0011085158070000
  500.98 0.0010952905650000
  501.00 0.0010829246260000
  501.03 0.0010711475670000
  501.05 0.0010597429180000
  501.08 0.0010486971980000
  501.10 0.0010379969150000
  501.13 0.0010276285680000
  501.15 0.0010175786510000
  501.18 0.0010078336460000
  501.20 0.0009983800303000
