# HIMAWARI9 relative spectral response function for band 6
# (see http://www.data.jma.go.jp/mscweb/en/himawari89/space_segment/spsg_ahi.html#band)
# converted from 
# http://www.data.jma.go.jp/mscweb/en/himawari89/space_segment/srf_201309/AHI-08_SpectralResponsivity.zip
# http://www.data.jma.go.jp/mscweb/en/himawari89/space_segment/srf_201310/AHI-09_SpectralResponsivity.zip
# 
# LAMBDA   RSR
# 
 2197.80 0.0009902427642000
 2198.29 0.0010126867190000
 2198.77 0.0010320698310000
 2199.25 0.0010109834010000
 2199.74 0.0008979116136000
 2200.22 0.0009163846303000
 2200.70 0.0011491673190000
 2201.19 0.0013219747960000
 2201.67 0.0014160808650000
 2202.16 0.0014907998720000
 2202.64 0.0015510174110000
 2203.13 0.0016419559450000
 2203.61 0.0018443929190000
 2204.10 0.0020671830030000
 2204.59 0.0022822609580000
 2205.07 0.0025456642610000
 2205.56 0.0029214540360000
 2206.04 0.0032961425920000
 2206.53 0.0035463972170000
 2207.02 0.0038047138650000
 2207.51 0.0041279355020000
 2207.99 0.0045117918380000
 2208.48 0.0049952623290000
 2208.97 0.0055797659370000
 2209.46 0.0063147283310000
 2209.94 0.0071601910100000
 2210.43 0.0079710202150000
 2210.92 0.0088316596630000
 2211.41 0.0099122324410000
 2211.90 0.0112015475400000
 2212.39 0.0127476798400000
 2212.88 0.0146137627200000
 2213.37 0.0168058998500000
 2213.86 0.0193643809800000
 2214.35 0.0222619996800000
 2214.84 0.0255302025600000
 2215.33 0.0292181145900000
 2215.82 0.0333531547700000
 2216.31 0.0380246497300000
 2216.80 0.0433243269300000
 2217.29 0.0491916174600000
 2217.79 0.0556623293300000
 2218.28 0.0621651517100000
 2218.77 0.0687945920800000
 2219.26 0.0763496673400000
 2219.76 0.0847304285400000
 2220.25 0.0936597218400000
 2220.74 0.1031731554000000
 2221.24 0.1129813433000000
 2221.73 0.1230263023000000
 2222.22 0.1335639079000000
 2222.72 0.1445729772000000
 2223.21 0.1558774442000000
 2223.70 0.1673022214000000
 2224.20 0.1790148192000000
 2224.69 0.1913297668000000
 2225.19 0.2037940663000000
 2225.68 0.2162594588000000
 2226.18 0.2289357800000000
 2226.68 0.2418136779000000
 2227.17 0.2552539731000000
 2227.67 0.2695581066000000
 2228.16 0.2842665886000000
 2228.66 0.2990046851000000
 2229.16 0.3139745670000000
 2229.65 0.3292834317000000
 2230.15 0.3443605906000000
 2230.65 0.3595848969000000
 2231.15 0.3753289150000000
 2231.64 0.3911146532000000
 2232.14 0.4068637115000000
 2232.64 0.4222598258000000
 2233.14 0.4376900199000000
 2233.64 0.4530803723000000
 2234.14 0.4685814883000000
 2234.64 0.4839193036000000
 2235.14 0.4988301750000000
 2235.64 0.5136230910000000
 2236.14 0.5288939070000001
 2236.64 0.5452627483000000
 2237.14 0.5621169893000000
 2237.64 0.5795034890000000
 2238.14 0.5967022462000000
 2238.64 0.6137166690000000
 2239.14 0.6307596918000000
 2239.64 0.6476195495000000
 2240.14 0.6646701999000000
 2240.65 0.6824006846000000
 2241.15 0.7002228919000000
 2241.65 0.7181695341000000
 2242.15 0.7355778209000000
 2242.66 0.7522399312000000
 2243.16 0.7681297198000000
 2243.66 0.7840076304000000
 2244.17 0.7999452382000000
 2244.67 0.8151972023000000
 2245.17 0.8302878737000000
 2245.68 0.8453862132000000
 2246.18 0.8600461221000000
 2246.69 0.8747923970000000
 2247.19 0.8903018029000000
 2247.70 0.9043574254000000
 2248.20 0.9170940589000000
 2248.71 0.9297984461000000
 2249.21 0.9399036244000000
 2249.72 0.9475897198000000
 2250.23 0.9547368912000000
 2250.73 0.9606932204000000
 2251.24 0.9637109796000000
 2251.75 0.9655290249000000
 2252.25 0.9683170610000000
 2252.76 0.9731071006000001
 2253.27 0.9784683740000000
 2253.78 0.9835437394000000
 2254.28 0.9890541767000000
 2254.79 0.9939843765000000
 2255.30 0.9975195607000000
 2255.81 0.9997067256000000
 2256.32 0.9995187304000001
 2256.83 0.9977882785000000
 2257.34 0.9930323935000001
 2257.85 0.9831247467000001
 2258.36 0.9733412753000000
 2258.87 0.9633955626000000
 2259.38 0.9535161141000000
 2259.89 0.9431449823000000
 2260.40 0.9327069423000000
 2260.91 0.9222742021000000
 2261.42 0.9133941296000000
 2261.93 0.9054060284000000
 2262.44 0.8975523778000000
 2262.96 0.8897199119000000
 2263.47 0.8813705568000000
 2263.98 0.8724586175000000
 2264.49 0.8633524057999999
 2265.01 0.8534935839000000
 2265.52 0.8430645281000000
 2266.03 0.8326885737000000
 2266.55 0.8220993257000000
 2267.06 0.8112998379000000
 2267.57 0.8003712750000000
 2268.09 0.7894550873000000
 2268.60 0.7782870336000000
 2269.12 0.7660959289000000
 2269.63 0.7536205529000000
 2270.15 0.7405814010000000
 2270.66 0.7275583072000000
 2271.18 0.7145392744000000
 2271.69 0.7011630236000000
 2272.21 0.6880803682000000
 2272.73 0.6751454626000000
 2273.24 0.6620187161000000
 2273.76 0.6489854721000000
 2274.28 0.6361297554000001
 2274.80 0.6228840256000000
 2275.31 0.6094892324000000
 2275.83 0.5960475182000000
 2276.35 0.5820217553000000
 2276.87 0.5675043023000000
 2277.39 0.5528483510000000
 2277.90 0.5380356098000000
 2278.42 0.5231794458000000
 2278.94 0.5084751991999999
 2279.46 0.4931751344000000
 2279.98 0.4776622594000000
 2280.50 0.4618729403000000
 2281.02 0.4459197913000000
 2281.54 0.4298698573000000
 2282.06 0.4139758154000000
 2282.58 0.3985099298000000
 2283.11 0.3831144097000000
 2283.63 0.3676070003000000
 2284.15 0.3518511895000000
 2284.67 0.3360514796000000
 2285.19 0.3203901663000000
 2285.71 0.3047421618000000
 2286.24 0.2890900392000000
 2286.76 0.2734425824000000
 2287.28 0.2577135636000000
 2287.81 0.2420093230000000
 2288.33 0.2266373628000000
 2288.85 0.2115311329000000
 2289.38 0.1966362462000000
 2289.90 0.1819769807000000
 2290.43 0.1676608824000000
 2290.95 0.1536239160000000
 2291.48 0.1402431358000000
 2292.00 0.1274588357000000
 2292.53 0.1157046099000000
 2293.05 0.1047355262000000
 2293.58 0.0947112193600000
 2294.10 0.0854515189500000
 2294.63 0.0767849560700000
 2295.16 0.0686713677700000
 2295.68 0.0613130461900000
 2296.21 0.0546905982500000
 2296.74 0.0488865150000000
 2297.27 0.0436661042400000
 2297.79 0.0389237257300000
 2298.32 0.0346533320700000
 2298.85 0.0307751355800000
 2299.38 0.0274129713600000
 2299.91 0.0244680179900000
 2300.44 0.0219377388800000
 2300.97 0.0196958734000000
 2301.50 0.0175532599200000
 2302.03 0.0156967534700000
 2302.56 0.0143542355000000
 2303.09 0.0130888709000000
 2303.62 0.0117378271000000
 2304.15 0.0105526799200000
 2304.68 0.0095643150150000
 2305.21 0.0087419502340000
 2305.74 0.0080569398660000
 2306.27 0.0075073736790000
 2306.81 0.0070435081280000
 2307.34 0.0065226444180000
 2307.87 0.0059588886520000
 2308.40 0.0054201417310000
 2308.94 0.0049243714920000
 2309.47 0.0045003408180000
 2310.00 0.0041598539120000
 2310.54 0.0039502935470000
 2311.07 0.0037533709640000
 2311.60 0.0034940123340000
 2312.14 0.0032443170630000
 2312.67 0.0030320753630000
 2313.21 0.0028081853210000
 2313.74 0.0025601021540000
 2314.28 0.0023572103390000
 2314.81 0.0021928662110000
 2315.35 0.0020779359070000
 2315.89 0.0019801388800000
 2316.42 0.0018816611980000
 2316.96 0.0017740955930000
 2317.50 0.0016084682350000
 2318.03 0.0014481341500000
 2318.57 0.0013685372660000
 2319.11 0.0013078422100000
 2319.65 0.0012649409060000
 2320.19 0.0012039926810000
 2320.72 0.0010945750830000
 2321.26 0.0010237323070000
 2321.80 0.0009802089756000
