# HIMAWARI8 relative spectral response function for band 2
# (see http://www.data.jma.go.jp/mscweb/en/himawari89/space_segment/spsg_ahi.html#band)
# converted from 
# http://www.data.jma.go.jp/mscweb/en/himawari89/space_segment/srf_201309/AHI-08_SpectralResponsivity.zip
# http://www.data.jma.go.jp/mscweb/en/himawari89/space_segment/srf_201310/AHI-09_SpectralResponsivity.zip
# 
# LAMBDA   RSR
# 
  480.05 0.0009999550000000
  480.08 0.0010096190000000
  480.10 0.0010194490000000
  480.12 0.0010294470000000
  480.15 0.0010396150000000
  480.17 0.0010499540000000
  480.19 0.0010604660000000
  480.22 0.0010711510000000
  480.24 0.0010820110000000
  480.26 0.0010930470000000
  480.28 0.0011042620000000
  480.31 0.0011156560000000
  480.33 0.0011272310000000
  480.35 0.0011389870000000
  480.38 0.0011509280000000
  480.40 0.0011630530000000
  480.42 0.0011753650000000
  480.45 0.0011878640000000
  480.47 0.0012005520000000
  480.49 0.0012134310000000
  480.52 0.0012265020000000
  480.54 0.0012397660000000
  480.56 0.0012532250000000
  480.58 0.0012668810000000
  480.61 0.0012807330000000
  480.63 0.0012947850000000
  480.65 0.0013090370000000
  480.68 0.0013234910000000
  480.70 0.0013381480000000
  480.72 0.0013530100000000
  480.75 0.0013680780000000
  480.77 0.0013833530000000
  480.79 0.0013988380000000
  480.82 0.0014145320000000
  480.84 0.0014304380000000
  480.86 0.0014465580000000
  480.88 0.0014628910000000
  480.91 0.0014794410000000
  480.93 0.0014962080000000
  480.95 0.0015131940000000
  480.98 0.0015304000000000
  481.00 0.0015478280000000
  481.02 0.0015655750000000
  481.05 0.0015837280000000
  481.07 0.0016022870000000
  481.09 0.0016212530000000
  481.12 0.0016406260000000
  481.14 0.0016604040000000
  481.16 0.0016805890000000
  481.19 0.0017011790000000
  481.21 0.0017221750000000
  481.23 0.0017435770000000
  481.26 0.0017653840000000
  481.28 0.0017875960000000
  481.30 0.0018102130000000
  481.32 0.0018332360000000
  481.35 0.0018566630000000
  481.37 0.0018804950000000
  481.39 0.0019047310000000
  481.42 0.0019293720000000
  481.44 0.0019544170000000
  481.46 0.0019798660000000
  481.49 0.0020057190000000
  481.51 0.0020319760000000
  481.53 0.0020586360000000
  481.56 0.0020857000000000
  481.58 0.0021131680000000
  481.60 0.0021410380000000
  481.63 0.0021693120000000
  481.65 0.0021979880000000
  481.67 0.0022270680000000
  481.70 0.0022565490000000
  481.72 0.0022864340000000
  481.74 0.0023167210000000
  481.77 0.0023474090000000
  481.79 0.0023785000000000
  481.81 0.0024099930000000
  481.83 0.0024418870000000
  481.86 0.0024741830000000
  481.88 0.0025068810000000
  481.90 0.0025399800000000
  481.93 0.0025734790000000
  481.95 0.0026073800000000
  481.97 0.0026416820000000
  482.00 0.0026763840000000
  482.02 0.0027116510000000
  482.04 0.0027477320000000
  482.07 0.0027846280000000
  482.09 0.0028223380000000
  482.11 0.0028608600000000
  482.14 0.0029001930000000
  482.16 0.0029403360000000
  482.18 0.0029812880000000
  482.21 0.0030230470000000
  482.23 0.0030656120000000
  482.25 0.0031089810000000
  482.28 0.0031531540000000
  482.30 0.0031981290000000
  482.32 0.0032439040000000
  482.35 0.0032904790000000
  482.37 0.0033378520000000
  482.39 0.0033860220000000
  482.42 0.0034349870000000
  482.44 0.0034847460000000
  482.46 0.0035352980000000
  482.49 0.0035866420000000
  482.51 0.0036387760000000
  482.53 0.0036916980000000
  482.56 0.0037454090000000
  482.58 0.0037999050000000
  482.60 0.0038551860000000
  482.63 0.0039112510000000
  482.65 0.0039680990000000
  482.67 0.0040257270000000
  482.70 0.0040841340000000
  482.72 0.0041433210000000
  482.74 0.0042032840000000
  482.77 0.0042640220000000
  482.79 0.0043255350000000
  482.81 0.0043878210000000
  482.84 0.0044508790000000
  482.86 0.0045147070000000
  482.88 0.0045793040000000
  482.91 0.0046446680000000
  482.93 0.0047107990000000
  482.95 0.0047776950000000
  482.98 0.0048453550000000
  483.00 0.0049137770000000
  483.02 0.0049833760000000
  483.05 0.0050546800000000
  483.07 0.0051276760000000
  483.09 0.0052023510000000
  483.12 0.0052786900000000
  483.14 0.0053566780000000
  483.16 0.0054363020000000
  483.19 0.0055175470000000
  483.21 0.0056003990000000
  483.23 0.0056848440000000
  483.26 0.0057708670000000
  483.28 0.0058584540000000
  483.30 0.0059475900000000
  483.33 0.0060382630000000
  483.35 0.0061304560000000
  483.37 0.0062241560000000
  483.40 0.0063193480000000
  483.42 0.0064160180000000
  483.44 0.0065141520000000
  483.47 0.0066137360000000
  483.49 0.0067147540000000
  483.51 0.0068171930000000
  483.54 0.0069210380000000
  483.56 0.0070262740000000
  483.58 0.0071328880000000
  483.61 0.0072408650000000
  483.63 0.0073501900000000
  483.65 0.0074608500000000
  483.68 0.0075728290000000
  483.70 0.0076861120000000
  483.72 0.0078006870000000
  483.75 0.0079165380000000
  483.77 0.0080336500000000
  483.79 0.0081520100000000
  483.82 0.0082716020000000
  483.84 0.0083924130000000
  483.86 0.0085144270000000
  483.89 0.0086376300000000
  483.91 0.0087620080000000
  483.93 0.0088875460000000
  483.96 0.0090142290000000
  483.98 0.0091420440000000
  484.00 0.0092709880000000
  484.03 0.0094017560000000
  484.05 0.0095347480000000
  484.07 0.0096699690000000
  484.10 0.0098074270000000
  484.12 0.0099471270000000
  484.14 0.0100890780000000
  484.17 0.0102332850000000
  484.19 0.0103797550000000
  484.21 0.0105284940000000
  484.24 0.0106795110000000
  484.26 0.0108328100000000
  484.28 0.0109883990000000
  484.31 0.0111462850000000
  484.33 0.0113064730000000
  484.36 0.0114689720000000
  484.38 0.0116337870000000
  484.40 0.0118009260000000
  484.43 0.0119703940000000
  484.45 0.0121421990000000
  484.47 0.0123163480000000
  484.50 0.0124928470000000
  484.52 0.0126717020000000
  484.54 0.0128529210000000
  484.57 0.0130365100000000
  484.59 0.0132224770000000
  484.61 0.0134108270000000
  484.64 0.0136015670000000
  484.66 0.0137947050000000
  484.68 0.0139902470000000
  484.71 0.0141881990000000
  484.73 0.0143885690000000
  484.75 0.0145913630000000
  484.78 0.0147965880000000
  484.80 0.0150042510000000
  484.82 0.0152143590000000
  484.85 0.0154269170000000
  484.87 0.0156419340000000
  484.90 0.0158594160000000
  484.92 0.0160793690000000
  484.94 0.0163018010000000
  484.97 0.0165267170000000
  484.99 0.0167541260000000
  485.01 0.0169841880000000
  485.04 0.0172176760000000
  485.06 0.0174547460000000
  485.08 0.0176954580000000
  485.11 0.0179398700000000
  485.13 0.0181880430000000
  485.15 0.0184400360000000
  485.18 0.0186959090000000
  485.20 0.0189557220000000
  485.22 0.0192195350000000
  485.25 0.0194874060000000
  485.27 0.0197593980000000
  485.30 0.0200355680000000
  485.32 0.0203159770000000
  485.34 0.0206006860000000
  485.37 0.0208897530000000
  485.39 0.0211832390000000
  485.41 0.0214812050000000
  485.44 0.0217837090000000
  485.46 0.0220908130000000
  485.48 0.0224025770000000
  485.51 0.0227190600000000
  485.53 0.0230403230000000
  485.55 0.0233664260000000
  485.58 0.0236974300000000
  485.60 0.0240333950000000
  485.63 0.0243743810000000
  485.65 0.0247204480000000
  485.67 0.0250716580000000
  485.70 0.0254280700000000
  485.72 0.0257897450000000
  485.74 0.0261567440000000
  485.77 0.0265291270000000
  485.79 0.0269069550000000
  485.81 0.0272902880000000
  485.84 0.0276791870000000
  485.86 0.0280737130000000
  485.89 0.0284739270000000
  485.91 0.0288798900000000
  485.93 0.0292916610000000
  485.96 0.0297093030000000
  485.98 0.0301328760000000
  486.00 0.0305625050000000
  486.03 0.0310027530000000
  486.05 0.0314562450000000
  486.07 0.0319227740000000
  486.10 0.0324021340000000
  486.12 0.0328941200000000
  486.14 0.0333985240000000
  486.17 0.0339151400000000
  486.19 0.0344437610000000
  486.22 0.0349841810000000
  486.24 0.0355361920000000
  486.26 0.0360995870000000
  486.29 0.0366741600000000
  486.31 0.0372597020000000
  486.33 0.0378560070000000
  486.36 0.0384628660000000
  486.38 0.0390800730000000
  486.40 0.0397074190000000
  486.43 0.0403446960000000
  486.45 0.0409916970000000
  486.48 0.0416482120000000
  486.50 0.0423140340000000
  486.52 0.0429889550000000
  486.55 0.0436727660000000
  486.57 0.0443652570000000
  486.59 0.0450662210000000
  486.62 0.0457754490000000
  486.64 0.0464927310000000
  486.67 0.0472178580000000
  486.69 0.0479506210000000
  486.71 0.0486908100000000
  486.74 0.0494382170000000
  486.76 0.0501926310000000
  486.78 0.0509538430000000
  486.81 0.0517216420000000
  486.83 0.0524958190000000
  486.85 0.0532761630000000
  486.88 0.0540624650000000
  486.90 0.0548545130000000
  486.93 0.0556520980000000
  486.95 0.0564550080000000
  486.97 0.0572630340000000
  487.00 0.0580759630000000
  487.02 0.0589004640000000
  487.04 0.0597467550000000
  487.07 0.0606142590000000
  487.09 0.0615022660000000
  487.12 0.0624100720000000
  487.14 0.0633369660000000
  487.16 0.0642822420000000
  487.19 0.0652451900000000
  487.21 0.0662251020000000
  487.23 0.0672212680000000
  487.26 0.0682329780000000
  487.28 0.0692595220000000
  487.31 0.0703001890000000
  487.33 0.0713542680000000
  487.35 0.0724210480000000
  487.38 0.0734998160000000
  487.40 0.0745898610000000
  487.42 0.0756904680000000
  487.45 0.0768009260000000
  487.47 0.0779205210000000
  487.50 0.0790485370000000
  487.52 0.0801842620000000
  487.54 0.0813269800000000
  487.57 0.0824759760000000
  487.59 0.0836305330000000
  487.61 0.0847899370000000
  487.64 0.0859534700000000
  487.66 0.0871204150000000
  487.69 0.0882900550000000
  487.71 0.0894616720000000
  487.73 0.0906345490000000
  487.76 0.0918079650000000
  487.78 0.0929812020000000
  487.80 0.0941535410000000
  487.83 0.0953242620000000
  487.85 0.0964926440000000
  487.88 0.0976579660000000
  487.90 0.0988195080000000
  487.92 0.0999765470000000
  487.95 0.1011283630000000
  487.97 0.1022742310000000
  488.00 0.1034134290000000
  488.02 0.1045494030000000
  488.04 0.1056902290000000
  488.07 0.1068359800000000
  488.09 0.1079864860000000
  488.11 0.1091415720000000
  488.14 0.1103010670000000
  488.16 0.1114647990000000
  488.19 0.1126325930000000
  488.21 0.1138042790000000
  488.23 0.1149796820000000
  488.26 0.1161586300000000
  488.28 0.1173409490000000
  488.31 0.1185264670000000
  488.33 0.1197150090000000
  488.35 0.1209064030000000
  488.38 0.1221004760000000
  488.40 0.1232970520000000
  488.42 0.1244959590000000
  488.45 0.1256970230000000
  488.47 0.1269000700000000
  488.50 0.1281049260000000
  488.52 0.1293114170000000
  488.54 0.1305193680000000
  488.57 0.1317286050000000
  488.59 0.1329389540000000
  488.62 0.1341502400000000
  488.64 0.1353622880000000
  488.66 0.1365749250000000
  488.69 0.1377879740000000
  488.71 0.1390012610000000
  488.73 0.1402146100000000
  488.76 0.1414278480000000
  488.78 0.1426407980000000
  488.81 0.1438532850000000
  488.83 0.1450651330000000
  488.85 0.1462761670000000
  488.88 0.1474862120000000
  488.90 0.1486950910000000
  488.93 0.1499026290000000
  488.95 0.1511086490000000
  488.97 0.1523129760000000
  489.00 0.1535154340000000
  489.02 0.1547172460000000
  489.05 0.1559203590000000
  489.07 0.1571247200000000
  489.09 0.1583302560000000
  489.12 0.1595368980000000
  489.14 0.1607445740000000
  489.16 0.1619532130000000
  489.19 0.1631627440000000
  489.21 0.1643730950000000
  489.24 0.1655841970000000
  489.26 0.1667959760000000
  489.28 0.1680083620000000
  489.31 0.1692212840000000
  489.33 0.1704346700000000
  489.36 0.1716484490000000
  489.38 0.1728625490000000
  489.40 0.1740768990000000
  489.43 0.1752914260000000
  489.45 0.1765060610000000
  489.48 0.1777207300000000
  489.50 0.1789353620000000
  489.52 0.1801498860000000
  489.55 0.1813642290000000
  489.57 0.1825783200000000
  489.60 0.1837920870000000
  489.62 0.1850054580000000
  489.64 0.1862183610000000
  489.67 0.1874307250000000
  489.69 0.1886424760000000
  489.72 0.1898535430000000
  489.74 0.1910638540000000
  489.76 0.1922733370000000
  489.79 0.1934819200000000
  489.81 0.1946895290000000
  489.84 0.1958960940000000
  489.86 0.1971015410000000
  489.88 0.1983057990000000
  489.91 0.1995087940000000
  489.93 0.2007104550000000
  489.96 0.2019107080000000
  489.98 0.2031094820000000
  490.00 0.2043067180000000
  490.03 0.2055030380000000
  490.05 0.2066988040000000
  490.08 0.2078940120000000
  490.10 0.2090886600000000
  490.12 0.2102827440000000
  490.15 0.2114762600000000
  490.17 0.2126692060000000
  490.20 0.2138615780000000
  490.22 0.2150533730000000
  490.24 0.2162445880000000
  490.27 0.2174352190000000
  490.29 0.2186252630000000
  490.32 0.2198147170000000
  490.34 0.2210035770000000
  490.36 0.2221918400000000
  490.39 0.2233795030000000
  490.41 0.2245665630000000
  490.44 0.2257530150000000
  490.46 0.2269388580000000
  490.48 0.2281240870000000
  490.51 0.2293086990000000
  490.53 0.2304926910000000
  490.56 0.2316760600000000
  490.58 0.2328588020000000
  490.60 0.2340409140000000
  490.63 0.2352223930000000
  490.65 0.2364032350000000
  490.68 0.2375834370000000
  490.70 0.2387629960000000
  490.73 0.2399419080000000
  490.75 0.2411201700000000
  490.77 0.2422977790000000
  490.80 0.2434747310000000
  490.82 0.2446510220000000
  490.85 0.2458266510000000
  490.87 0.2470016130000000
  490.89 0.2481759050000000
  490.92 0.2493495230000000
  490.94 0.2505224650000000
  490.97 0.2516947260000000
  490.99 0.2528663040000000
  491.01 0.2540363240000000
  491.04 0.2552013350000000
  491.06 0.2563612980000000
  491.09 0.2575165730000000
  491.11 0.2586675190000000
  491.14 0.2598144990000000
  491.16 0.2609578730000000
  491.18 0.2620980010000000
  491.21 0.2632352470000000
  491.23 0.2643699710000000
  491.26 0.2655025340000000
  491.28 0.2666333000000000
  491.30 0.2677626310000000
  491.33 0.2688908890000000
  491.35 0.2700184360000000
  491.38 0.2711456360000000
  491.40 0.2722728510000000
  491.42 0.2734004460000000
  491.45 0.2745287830000000
  491.47 0.2756582270000000
  491.50 0.2767891410000000
  491.52 0.2779218910000000
  491.55 0.2790568390000000
  491.57 0.2801943510000000
  491.59 0.2813347910000000
  491.62 0.2824785250000000
  491.64 0.2836259180000000
  491.67 0.2847773360000000
  491.69 0.2859331440000000
  491.71 0.2870937080000000
  491.74 0.2882593940000000
  491.76 0.2894305690000000
  491.79 0.2906075990000000
  491.81 0.2917908510000000
  491.84 0.2929806920000000
  491.86 0.2941774900000000
  491.88 0.2953816110000000
  491.91 0.2965934230000000
  491.93 0.2978132950000000
  491.96 0.2990415940000000
  491.98 0.3002786890000000
  492.00 0.3015248570000000
  492.03 0.3027774970000000
  492.05 0.3040352650000000
  492.08 0.3052981630000000
  492.10 0.3065661920000000
  492.13 0.3078393550000000
  492.15 0.3091176530000000
  492.17 0.3104010870000000
  492.20 0.3116896600000000
  492.22 0.3129833720000000
  492.25 0.3142822260000000
  492.27 0.3155862240000000
  492.30 0.3168953660000000
  492.32 0.3182096540000000
  492.34 0.3195290910000000
  492.37 0.3208536780000000
  492.39 0.3221834160000000
  492.42 0.3235183070000000
  492.44 0.3248583530000000
  492.47 0.3262035560000000
  492.49 0.3275539160000000
  492.51 0.3289094370000000
  492.54 0.3302701180000000
  492.56 0.3316359630000000
  492.59 0.3330069730000000
  492.61 0.3343831480000000
  492.64 0.3357644920000000
  492.66 0.3371510060000000
  492.68 0.3385426910000000
  492.71 0.3399395490000000
  492.73 0.3413415810000000
  492.76 0.3427487900000000
  492.78 0.3441611770000000
  492.81 0.3455787440000000
  492.83 0.3470014920000000
  492.85 0.3484294230000000
  492.88 0.3498625390000000
  492.90 0.3513008410000000
  492.93 0.3527443310000000
  492.95 0.3541930100000000
  492.98 0.3556468810000000
  493.00 0.3571059450000000
  493.02 0.3585724740000000
  493.05 0.3600487770000000
  493.07 0.3615345640000000
  493.10 0.3630295440000000
  493.12 0.3645334250000000
  493.15 0.3660459160000000
  493.17 0.3675667250000000
  493.19 0.3690955600000000
  493.22 0.3706321280000000
  493.24 0.3721761370000000
  493.27 0.3737272950000000
  493.29 0.3752853080000000
  493.32 0.3768498850000000
  493.34 0.3784207310000000
  493.36 0.3799975530000000
  493.39 0.3815800580000000
  493.41 0.3831679530000000
  493.44 0.3847609430000000
  493.46 0.3863587350000000
  493.49 0.3879610340000000
  493.51 0.3895675470000000
  493.53 0.3911779780000000
  493.56 0.3927920320000000
  493.58 0.3944094160000000
  493.61 0.3960298340000000
  493.63 0.3976529900000000
  493.66 0.3992785900000000
  493.68 0.4009063380000000
  493.71 0.4025359380000000
  493.73 0.4041670950000000
  493.75 0.4057995110000000
  493.78 0.4074328920000000
  493.80 0.4090669400000000
  493.83 0.4107013580000000
  493.85 0.4123358510000000
  493.88 0.4139701210000000
  493.90 0.4156038710000000
  493.92 0.4172368040000000
  493.95 0.4188686220000000
  493.97 0.4204990280000000
  494.00 0.4221277230000000
  494.02 0.4237547200000000
  494.05 0.4253804900000000
  494.07 0.4270052980000000
  494.10 0.4286294070000000
  494.12 0.4302530780000000
  494.14 0.4318765750000000
  494.17 0.4335001610000000
  494.19 0.4351240990000000
  494.22 0.4367486520000000
  494.24 0.4383740840000000
  494.27 0.4400006580000000
  494.29 0.4416286370000000
  494.32 0.4432582870000000
  494.34 0.4448898700000000
  494.36 0.4465236510000000
  494.39 0.4481598950000000
  494.41 0.4497988660000000
  494.44 0.4514408280000000
  494.46 0.4530860470000000
  494.49 0.4547347870000000
  494.51 0.4563873140000000
  494.54 0.4580438930000000
  494.56 0.4597047890000000
  494.58 0.4613702680000000
  494.61 0.4630405960000000
  494.63 0.4647160390000000
  494.66 0.4663968620000000
  494.68 0.4680833330000000
  494.71 0.4697757170000000
  494.73 0.4714742810000000
  494.76 0.4731792920000000
  494.78 0.4748910160000000
  494.80 0.4766097210000000
  494.83 0.4783356740000000
  494.85 0.4800691430000000
  494.88 0.4818103940000000
  494.90 0.4835596950000000
  494.93 0.4853173150000000
  494.95 0.4870835210000000
  494.98 0.4888585810000000
  495.00 0.4906427650000000
  495.02 0.4924368960000000
  495.05 0.4942413740000000
  495.07 0.4960559030000000
  495.10 0.4978801870000000
  495.12 0.4997139310000000
  495.15 0.5015568390000000
  495.17 0.5034086129999999
  495.20 0.5052689590000000
  495.22 0.5071375780000000
  495.25 0.5090141750000000
  495.27 0.5108984519999999
  495.29 0.5127901120000000
  495.32 0.5146888580000000
  495.34 0.5165943920000000
  495.37 0.5185064170000000
  495.39 0.5204246350000000
  495.42 0.5223487470000000
  495.44 0.5242784560000000
  495.47 0.5262134630000000
  495.49 0.5281534690000000
  495.52 0.5300981760000000
  495.54 0.5320472850000000
  495.56 0.5340004970000000
  495.59 0.5359575120000000
  495.61 0.5379180300000000
  495.64 0.5398817540000000
  495.66 0.5418483810000000
  495.69 0.5438176139999999
  495.71 0.5457891499999999
  495.74 0.5477626900000000
  495.76 0.5497379340000000
  495.79 0.5517145800000000
  495.81 0.5536923290000000
  495.83 0.5556708770000000
  495.86 0.5576499260000000
  495.88 0.5596291720000000
  495.91 0.5616083150000000
  495.93 0.5635870520000000
  495.96 0.5655650820000000
  495.98 0.5675421020000000
  496.01 0.5695178410000000
  496.03 0.5714926630000000
  496.06 0.5734669650000001
  496.08 0.5754410080000000
  496.11 0.5774150550000000
  496.13 0.5793893660000000
  496.15 0.5813642050000000
  496.18 0.5833398340000000
  496.20 0.5853165150000000
  496.23 0.5872945100000000
  496.25 0.5892740829999999
  496.28 0.5912554960000000
  496.30 0.5932390130000000
  496.33 0.5952248959999999
  496.35 0.5972134099999999
  496.38 0.5992048169999999
  496.40 0.6011993810000000
  496.43 0.6031973670000000
  496.45 0.6051990370000000
  496.48 0.6072046570000000
  496.50 0.6092144910000000
  496.52 0.6112288030000000
  496.55 0.6132478570000000
  496.57 0.6152719190000000
  496.60 0.6173012540000000
  496.62 0.6193361270000000
  496.65 0.6213768020000000
  496.67 0.6234235460000001
  496.70 0.6254766230000000
  496.72 0.6275363010000000
  496.75 0.6296028440000000
  496.77 0.6316765180000000
  496.80 0.6337575910000000
  496.82 0.6358463280000000
  496.85 0.6379429960000000
  496.87 0.6400478610000000
  496.89 0.6421611900000000
  496.92 0.6442832509999999
  496.94 0.6464143100000000
  496.97 0.6485546360000000
  496.99 0.6507044940000000
  497.02 0.6528636740000000
  497.04 0.6550309940000000
  497.07 0.6572063130000000
  497.09 0.6593895570000000
  497.12 0.6615806510000000
  497.14 0.6637795180000000
  497.17 0.6659860850000000
  497.19 0.6682002760000000
  497.22 0.6704220160000000
  497.24 0.6726512290000000
  497.27 0.6748878400000000
  497.29 0.6771317740000000
  497.31 0.6793829540000000
  497.34 0.6816413070000000
  497.36 0.6839067550000000
  497.39 0.6861792249999999
  497.41 0.6884586380000000
  497.44 0.6907449220000000
  497.46 0.6930379980000000
  497.49 0.6953377920000000
  497.51 0.6976442290000000
  497.54 0.6999572310000000
  497.56 0.7022767230000000
  497.59 0.7046026290000000
  497.61 0.7069348740000000
  497.64 0.7092733810000000
  497.66 0.7116180730000000
  497.69 0.7139688760000000
  497.71 0.7163257119999999
  497.74 0.7186885050000000
  497.76 0.7210571800000000
  497.78 0.7234316589999999
  497.81 0.7258118670000000
  497.83 0.7281977270000000
  497.86 0.7305891630000000
  497.88 0.7329860969999999
  497.91 0.7353884540000000
  497.93 0.7377961570000000
  497.96 0.7402091300000000
  497.98 0.7426272940000000
  498.01 0.7450518320000000
  498.03 0.7474996870000000
  498.06 0.7499749010000000
  498.08 0.7524757820000000
  498.11 0.7550006360000000
  498.13 0.7575477690000000
  498.16 0.7601154860000000
  498.18 0.7627020890000000
  498.21 0.7653058810000000
  498.23 0.7679251640000000
  498.26 0.7705582370000000
  498.28 0.7732034000000000
  498.31 0.7758589520000000
  498.33 0.7785231889999999
  498.36 0.7811944080000000
  498.38 0.7838709040000000
  498.41 0.7865509710000000
  498.43 0.7892329030000000
  498.45 0.7919149920000000
  498.48 0.7945955280000000
  498.50 0.7972728030000000
  498.53 0.7999451040000000
  498.55 0.8026107210000000
  498.58 0.8052679410000000
  498.60 0.8079150480000000
  498.63 0.8105503290000000
  498.65 0.8131720670000000
  498.68 0.8157785460000000
  498.70 0.8183680470000000
  498.73 0.8209388510000000
  498.75 0.8234892380000000
  498.78 0.8260174870000000
  498.80 0.8285218760000000
  498.83 0.8310006820000000
  498.85 0.8334521800000000
  498.88 0.8358746440000000
  498.90 0.8382663500000000
  498.93 0.8406255690000000
  498.95 0.8429505740000000
  498.98 0.8452396340000000
  499.00 0.8474911640000000
  499.03 0.8497293110000000
  499.05 0.8519716950000000
  499.08 0.8542169580000000
  499.10 0.8564637400000000
  499.13 0.8587106820000000
  499.15 0.8609564230000000
  499.18 0.8631996030000000
  499.20 0.8654388580000000
  499.23 0.8676728270000000
  499.25 0.8699001460000000
  499.28 0.8721194490000000
  499.30 0.8743293730000000
  499.33 0.8765285490000000
  499.35 0.8787156120000000
  499.38 0.8808891940000000
  499.40 0.8830479260000000
  499.43 0.8851904390000001
  499.45 0.8873153620000001
  499.48 0.8894213250000000
  499.50 0.8915069540000000
  499.53 0.8935708790000000
  499.55 0.8956117250000000
  499.58 0.8976281180000000
  499.60 0.8996186819999999
  499.63 0.9015820420000000
  499.65 0.9035168210000000
  499.68 0.9054216410000000
  499.70 0.9072951240000000
  499.73 0.9091358899999999
  499.75 0.9109425590000000
  499.78 0.9127137510000000
  499.80 0.9144480840000000
  499.83 0.9161441740000000
  499.85 0.9178006390000000
  499.88 0.9194160950000000
  499.90 0.9209891550000000
  499.93 0.9225184350000000
  499.95 0.9240025480000000
  499.98 0.9254401050000000
  500.00 0.9268297200000000
  500.03 0.9281918610000000
  500.05 0.9295474070000000
  500.08 0.9308955810000000
  500.10 0.9322356060000000
  500.13 0.9335667030000000
  500.15 0.9348880939999999
  500.18 0.9361990010000000
  500.20 0.9374986430000000
  500.23 0.9387862410000000
  500.25 0.9400610150000001
  500.28 0.9413221840000000
  500.30 0.9425689660000000
  500.33 0.9438005800000000
  500.35 0.9450162439999999
  500.38 0.9462151740000000
  500.40 0.9473965890000000
  500.43 0.9485597040000000
  500.45 0.9497037350000000
  500.48 0.9508278980000000
  500.50 0.9519314070000000
  500.53 0.9530134780000000
  500.55 0.9540733240000000
  500.58 0.9551101590000000
  500.60 0.9561231960000000
  500.63 0.9571116470000000
  500.65 0.9580747260000000
  500.68 0.9590116430000000
  500.70 0.9599216090000000
  500.73 0.9608038370000000
  500.75 0.9616575350000000
  500.78 0.9624819130000000
  500.80 0.9632761820000000
  500.83 0.9640395490000000
  500.85 0.9647712240000000
  500.88 0.9654704140000000
  500.90 0.9661363270000000
  500.93 0.9667681690000000
  500.95 0.9673651470000000
  500.98 0.9679264680000000
  501.00 0.9684514220000000
  501.03 0.9689548180000001
  501.05 0.9694480370000000
  501.08 0.9699312040000000
  501.10 0.9704044460000000
  501.13 0.9708678880000000
  501.15 0.9713216550000000
  501.18 0.9717658740000000
  501.20 0.9722006690000000
  501.23 0.9726261670000000
  501.25 0.9730424940000000
  501.28 0.9734497750000000
  501.30 0.9738481369999999
  501.33 0.9742377060000000
  501.35 0.9746186080000000
  501.38 0.9749909690000000
  501.40 0.9753549170000000
  501.43 0.9757105760000000
  501.45 0.9760580740000000
  501.48 0.9763975380000000
  501.50 0.9767290940000000
  501.53 0.9770528680000000
  501.55 0.9773689880000000
  501.58 0.9776775810000000
  501.61 0.9779787740000000
  501.63 0.9782726930000000
  501.66 0.9785594660000000
  501.68 0.9788392200000000
  501.71 0.9791120820000000
  501.73 0.9793781800000000
  501.76 0.9796376420000000
  501.78 0.9798905940000000
  501.81 0.9801371639999999
  501.83 0.9803774810000000
  501.86 0.9806116710000000
  501.88 0.9808398640000000
  501.91 0.9810621850000000
  501.93 0.9812787650000000
  501.96 0.9814897299999999
  501.98 0.9816952080000000
  502.01 0.9818953060000000
  502.03 0.9820898410000000
  502.06 0.9822789130000000
  502.08 0.9824627350000000
  502.11 0.9826415210000000
  502.13 0.9828154830000000
  502.16 0.9829848350000000
  502.18 0.9831497910000000
  502.21 0.9833105650000000
  502.23 0.9834673710000000
  502.26 0.9836204220000000
  502.29 0.9837699330000000
  502.31 0.9839161190000000
  502.34 0.9840591930000000
  502.36 0.9841993710000000
  502.39 0.9843368670000000
  502.41 0.9844718960000000
  502.44 0.9846046720000000
  502.46 0.9847354120000000
  502.49 0.9848643300000000
  502.51 0.9849916420000000
  502.54 0.9851175620000000
  502.56 0.9852423080000000
  502.59 0.9853660940000000
  502.61 0.9854891360000000
  502.64 0.9856116510000000
  502.66 0.9857338550000000
  502.69 0.9858559640000000
  502.71 0.9859781940000000
  502.74 0.9861007610000000
  502.77 0.9862238840000001
  502.79 0.9863477770000000
  502.82 0.9864726590000000
  502.84 0.9865987460000000
  502.87 0.9867262560000000
  502.89 0.9868554060000000
  502.92 0.9869864130000000
  502.94 0.9871194950000000
  502.97 0.9872548700000000
  502.99 0.9873927550000000
  503.02 0.9875339820000000
  503.04 0.9876801440000000
  503.07 0.9878309390000000
  503.09 0.9879859570000000
  503.12 0.9881447880000001
  503.14 0.9883070240000000
  503.17 0.9884722540000001
  503.20 0.9886400690000000
  503.22 0.9888100580000000
  503.25 0.9889818100000000
  503.27 0.9891549150000000
  503.30 0.9893289620000000
  503.32 0.9895035400000000
  503.35 0.9896782370000000
  503.37 0.9898526400000000
  503.40 0.9900263390000000
  503.42 0.9901989210000000
  503.45 0.9903699730000000
  503.47 0.9905390830000000
  503.50 0.9907058370000000
  503.52 0.9908698230000000
  503.55 0.9910306270000000
  503.58 0.9911878340000000
  503.60 0.9913410320000000
  503.63 0.9914898049999999
  503.65 0.9916337390000000
  503.68 0.9917724200000000
  503.70 0.9919054320000000
  503.73 0.9920323610000000
  503.75 0.9921527900000000
  503.78 0.9922663040000000
  503.80 0.9923724860000001
  503.83 0.9924709220000000
  503.85 0.9925611930000000
  503.88 0.9926428830000000
  503.91 0.9927155760000000
  503.93 0.9927788540000000
  503.96 0.9928322990000000
  503.98 0.9928754940000000
  504.01 0.9929084030000001
  504.03 0.9929380560000000
  504.06 0.9929672090000000
  504.08 0.9929958460000000
  504.11 0.9930239550000000
  504.13 0.9930515210000000
  504.16 0.9930785280000000
  504.18 0.9931049640000000
  504.21 0.9931308140000000
  504.24 0.9931560640000000
  504.26 0.9931806989999999
  504.29 0.9932047040000000
  504.31 0.9932280670000000
  504.34 0.9932507710000000
  504.36 0.9932728040000000
  504.39 0.9932941500000000
  504.41 0.9933147950000000
  504.44 0.9933347250000000
  504.46 0.9933539250000000
  504.49 0.9933723820000000
  504.52 0.9933900800000000
  504.54 0.9934070050000000
  504.57 0.9934231440000000
  504.59 0.9934384800000000
  504.62 0.9934530010000000
  504.64 0.9934666910000000
  504.67 0.9934795370000000
  504.69 0.9934915230000000
  504.72 0.9935026350000000
  504.74 0.9935128580000000
  504.77 0.9935221789999999
  504.80 0.9935305830000000
  504.82 0.9935380550000000
  504.85 0.9935445800000000
  504.87 0.9935501450000001
  504.90 0.9935547340000001
  504.92 0.9935583340000000
  504.95 0.9935609290000000
  504.97 0.9935625050000000
  505.00 0.9935630470000000
  505.02 0.9935499730000000
  505.05 0.9935103900000000
  505.08 0.9934453670000000
  505.10 0.9933559789999999
  505.13 0.9932433010000000
  505.15 0.9931084090000000
  505.18 0.9929523800000000
  505.20 0.9927762910000000
  505.23 0.9925812200000000
  505.25 0.9923682450000000
  505.28 0.9921384460000000
  505.31 0.9918929030000000
  505.33 0.9916326960000000
  505.36 0.9913589070000000
  505.38 0.9910726170000000
  505.41 0.9907749100000000
  505.43 0.9904668670000000
  505.46 0.9901495740000000
  505.48 0.9898241140000000
  505.51 0.9894915740000000
  505.54 0.9891530370000000
  505.56 0.9888095920000000
  505.59 0.9884623259999999
  505.61 0.9881123250000000
  505.64 0.9877606799999999
  505.66 0.9874084780000000
  505.69 0.9870568090000000
  505.71 0.9867067650000000
  505.74 0.9863594360000000
  505.77 0.9860159140000000
  505.79 0.9856772910000000
  505.82 0.9853446610000000
  505.84 0.9850191180000000
  505.87 0.9847017550000000
  505.89 0.9843936680000001
  505.92 0.9840959530000000
  505.94 0.9838097060000000
  505.97 0.9835360240000000
  506.00 0.9832760050000000
  506.02 0.9830214710000000
  506.05 0.9827570540000000
  506.07 0.9824833300000000
  506.10 0.9822011850000000
  506.12 0.9819115040000000
  506.15 0.9816151750000000
  506.18 0.9813130839999999
  506.20 0.9810061180000000
  506.23 0.9806951650000000
  506.25 0.9803811150000000
  506.28 0.9800648550000000
  506.30 0.9797472760000000
  506.33 0.9794292670000000
  506.35 0.9791117200000000
  506.38 0.9787955250000000
  506.41 0.9784815750000000
  506.43 0.9781707610000000
  506.46 0.9778639770000001
  506.48 0.9775621160000000
  506.51 0.9772660710000000
  506.53 0.9769767380000000
  506.56 0.9766950100000000
  506.59 0.9764217850000000
  506.61 0.9761579580000000
  506.64 0.9759044250000000
  506.66 0.9756620840000000
  506.69 0.9754318320000001
  506.71 0.9752145690000000
  506.74 0.9750111920000000
  506.77 0.9748226000000000
  506.79 0.9746496950000000
  506.82 0.9744933760000000
  506.84 0.9743545450000000
  506.87 0.9742341020000000
  506.89 0.9741329500000000
  506.92 0.9740519920000000
  506.95 0.9739921310000000
  506.97 0.9739542710000000
  507.00 0.9739393150000000
  507.02 0.9739417910000000
  507.05 0.9739514820000000
  507.07 0.9739680460000000
  507.10 0.9739912880000000
  507.13 0.9740210160000000
  507.15 0.9740570340000000
  507.18 0.9740991490000001
  507.20 0.9741471660000000
  507.23 0.9742008920000000
  507.25 0.9742601330000000
  507.28 0.9743246920000000
  507.31 0.9743943770000000
  507.33 0.9744689920000000
  507.36 0.9745483420000000
  507.38 0.9746322330000000
  507.41 0.9747204690000000
  507.43 0.9748128540000000
  507.46 0.9749091950000000
  507.49 0.9750092950000000
  507.51 0.9751129580000000
  507.54 0.9752199890000000
  507.56 0.9753301930000000
  507.59 0.9754433720000000
  507.61 0.9755593320000000
  507.64 0.9756778760000000
  507.67 0.9757988070000000
  507.69 0.9759219290000000
  507.72 0.9760470470000000
  507.74 0.9761739620000000
  507.77 0.9763024780000000
  507.79 0.9764323990000000
  507.82 0.9765635270000000
  507.85 0.9766956650000000
  507.87 0.9768286170000000
  507.90 0.9769621840000000
  507.92 0.9770961680000000
  507.95 0.9772303740000000
  507.98 0.9773646020000000
  508.00 0.9774986630000000
  508.03 0.9776380860000000
  508.05 0.9777874870000000
  508.08 0.9779465260000000
  508.10 0.9781148629999999
  508.13 0.9782921560000000
  508.16 0.9784780660000000
  508.18 0.9786722510000000
  508.21 0.9788743700000000
  508.23 0.9790840820000000
  508.26 0.9793010440000000
  508.29 0.9795249150000001
  508.31 0.9797553530000001
  508.34 0.9799920150000000
  508.36 0.9802345600000000
  508.39 0.9804826430000000
  508.41 0.9807359230000000
  508.44 0.9809940560000000
  508.47 0.9812566990000000
  508.49 0.9815235080000000
  508.52 0.9817941400000000
  508.54 0.9820682500000000
  508.57 0.9823454950000000
  508.60 0.9826255300000000
  508.62 0.9829080090000000
  508.65 0.9831925900000000
  508.67 0.9834789260000000
  508.70 0.9837666720000000
  508.72 0.9840554830000000
  508.75 0.9843450140000000
  508.78 0.9846349170000001
  508.80 0.9849248480000000
  508.83 0.9852144590000000
  508.85 0.9855034050000000
  508.88 0.9857913390000000
  508.91 0.9860779130000000
  508.93 0.9863627810000000
  508.96 0.9866455960000000
  508.98 0.9869260090000000
  509.01 0.9872051930000000
  509.04 0.9874991410000000
  509.06 0.9878111100000000
  509.09 0.9881397010000000
  509.11 0.9884835140000000
  509.14 0.9888411480000000
  509.16 0.9892112030000000
  509.19 0.9895922750000000
  509.22 0.9899829620000000
  509.24 0.9903818580000000
  509.27 0.9907875600000000
  509.29 0.9911986610000000
  509.32 0.9916137550000000
  509.35 0.9920314340000000
  509.37 0.9924502890000000
  509.40 0.9928689120000000
  509.42 0.9932858910000000
  509.45 0.9936998170000000
  509.48 0.9941092770000000
  509.50 0.9945128590000000
  509.53 0.9949091490000000
  509.55 0.9952967320000000
  509.58 0.9956741930000000
  509.61 0.9960401160000000
  509.63 0.9963930850000000
  509.66 0.9967316800000000
  509.68 0.9970544830000000
  509.71 0.9973600740000000
  509.74 0.9976470340000000
  509.76 0.9979139400000000
  509.79 0.9981593710000000
  509.81 0.9983819030000000
  509.84 0.9985801120000000
  509.87 0.9987525730000000
  509.89 0.9988978610000000
  509.92 0.9990145490000000
  509.94 0.9991012090000000
  509.97 0.9991564140000000
  510.00 0.9991787330000000
  510.02 0.9991785090000000
  510.05 0.9991760680000000
  510.07 0.9991718320000000
  510.10 0.9991658190000000
  510.13 0.9991580510000000
  510.15 0.9991485440000000
  510.18 0.9991373190000000
  510.20 0.9991243960000000
  510.23 0.9991097930000000
  510.26 0.9990935290000000
  510.28 0.9990756250000000
  510.31 0.9990560990000000
  510.33 0.9990349710000000
  510.36 0.9990122610000000
  510.39 0.9989879860000000
  510.41 0.9989621680000000
  510.44 0.9989348250000000
  510.46 0.9989059769999999
  510.49 0.9988756430000000
  510.52 0.9988438430000000
  510.54 0.9988105960000000
  510.57 0.9987759220000000
  510.59 0.9987398400000000
  510.62 0.9987023690000000
  510.65 0.9986635300000000
  510.67 0.9986233410000001
  510.70 0.9985818230000000
  510.73 0.9985389940000000
  510.75 0.9984948740000000
  510.78 0.9984494840000000
  510.80 0.9984028420000000
  510.83 0.9983549670000000
  510.86 0.9983058810000000
  510.88 0.9982556020000000
  510.91 0.9982041490000000
  510.93 0.9981515439999999
  510.96 0.9980978040000000
  510.99 0.9980429500000000
  511.01 0.9979823080000000
  511.04 0.9978850610000000
  511.06 0.9977474260000000
  511.09 0.9975716160000000
  511.12 0.9973598440000000
  511.14 0.9971143260000001
  511.17 0.9968372790000000
  511.20 0.9965309190000000
  511.22 0.9961974660000000
  511.25 0.9958391410000000
  511.27 0.9954581660000000
  511.30 0.9950567630000000
  511.33 0.9946371590000000
  511.35 0.9942015770000000
  511.38 0.9937522470000000
  511.40 0.9932913970000000
  511.43 0.9928212570000000
  511.46 0.9923440580000000
  511.48 0.9918620339999999
  511.51 0.9913774180000000
  511.54 0.9908924460000000
  511.56 0.9904093560000000
  511.59 0.9899303850000000
  511.61 0.9894577730000000
  511.64 0.9889937620000000
  511.67 0.9885405940000001
  511.69 0.9881005130000000
  511.72 0.9876757630000000
  511.74 0.9872685930000000
  511.77 0.9868812490000000
  511.80 0.9865159810000000
  511.82 0.9861750400000000
  511.85 0.9858606780000000
  511.88 0.9855751480000000
  511.90 0.9853207060000000
  511.93 0.9850996070000000
  511.95 0.9849141100000000
  511.98 0.9847664730000000
  512.01 0.9846576860000000
  512.03 0.9845614579999999
  512.06 0.9844666140000000
  512.09 0.9843732210000000
  512.11 0.9842813430000000
  512.14 0.9841910460000000
  512.16 0.9841023950000000
  512.19 0.9840154560000000
  512.22 0.9839302930000000
  512.24 0.9838469720000000
  512.27 0.9837655600000000
  512.30 0.9836861210000000
  512.32 0.9836087210000000
  512.35 0.9835334260000000
  512.37 0.9834603010000000
  512.40 0.9833894130000000
  512.43 0.9833208260000000
  512.45 0.9832546070000000
  512.48 0.9831908220000000
  512.51 0.9831295360000000
  512.53 0.9830708150000000
  512.56 0.9830147259999999
  512.58 0.9829613340000000
  512.61 0.9829107050000000
  512.64 0.9828629060000000
  512.66 0.9828180030000000
  512.69 0.9827760610000000
  512.72 0.9827371480000000
  512.74 0.9827013280000000
  512.77 0.9826686690000001
  512.79 0.9826392370000000
  512.82 0.9826130990000000
  512.85 0.9825903200000000
  512.87 0.9825709670000000
  512.90 0.9825551070000000
  512.93 0.9825428050000000
  512.95 0.9825341300000000
  512.98 0.9825291470000000
  513.00 0.9825285470000000
  513.03 0.9825575370000000
  513.06 0.9826277460000000
  513.08 0.9827371380000000
  513.11 0.9828836780000000
  513.14 0.9830653310000000
  513.16 0.9832800570000000
  513.19 0.9835258200000000
  513.22 0.9838005770000000
  513.24 0.9841022880000000
  513.27 0.9844289100000000
  513.29 0.9847783990000000
  513.32 0.9851487090000000
  513.35 0.9855377940000000
  513.37 0.9859436070000001
  513.40 0.9863640980000000
  513.43 0.9867972170000000
  513.45 0.9872409120000000
  513.48 0.9876931300000000
  513.51 0.9881518180000000
  513.53 0.9886149200000000
  513.56 0.9890803790000000
  513.58 0.9895461370000000
  513.61 0.9900101350000000
  513.64 0.9904703140000000
  513.66 0.9909246100000000
  513.69 0.9913709600000000
  513.72 0.9918073020000000
  513.74 0.9922315690000000
  513.77 0.9926416940000000
  513.80 0.9930356090000000
  513.82 0.9934112450000000
  513.85 0.9937665310000000
  513.87 0.9940993960000000
  513.90 0.9944077650000001
  513.93 0.9946895660000000
  513.95 0.9949427210000000
  513.98 0.9951651540000001
  514.01 0.9953559060000000
  514.03 0.9955374870000000
  514.06 0.9957192200000000
  514.09 0.9959008270000000
  514.11 0.9960820280000000
  514.14 0.9962625450000000
  514.17 0.9964420980000001
  514.19 0.9966204080000000
  514.22 0.9967971950000000
  514.24 0.9969721790000000
  514.27 0.9971450810000000
  514.30 0.9973156200000000
  514.32 0.9974835170000000
  514.35 0.9976484900000000
  514.38 0.9978102590000000
  514.40 0.9979685430000000
  514.43 0.9981230620000000
  514.46 0.9982735330000000
  514.48 0.9984196770000000
  514.51 0.9985612100000000
  514.54 0.9986978530000000
  514.56 0.9988293220000000
  514.59 0.9989553360000000
  514.62 0.9990756119999999
  514.64 0.9991898690000000
  514.67 0.9992978230000000
  514.69 0.9993991920000000
  514.72 0.9994936940000000
  514.75 0.9995810440000000
  514.77 0.9996609600000000
  514.80 0.9997331590000000
  514.83 0.9997973560000000
  514.85 0.9998532690000000
  514.88 0.9999006120000000
  514.91 0.9999391030000000
  514.93 0.9999684560000000
  514.96 0.9999883880000000
  514.99 0.9999986130000000
  515.01 0.9999977990000000
  515.04 0.9999790500000000
  515.07 0.9999416690000000
  515.09 0.9998862770000000
  515.12 0.9998134950000001
  515.15 0.9997239420000000
  515.17 0.9996182400000000
  515.20 0.9994970100000000
  515.22 0.9993608740000000
  515.25 0.9992104540000000
  515.28 0.9990463730000000
  515.30 0.9988692520000000
  515.33 0.9986797170000000
  515.36 0.9984783900000000
  515.38 0.9982658950000000
  515.41 0.9980428569999999
  515.44 0.9978099010000000
  515.46 0.9975676520000000
  515.49 0.9973167350000000
  515.52 0.9970577770000000
  515.54 0.9967914030000000
  515.57 0.9965182420000001
  515.60 0.9962389189999999
  515.62 0.9959540630000000
  515.65 0.9956643010000000
  515.68 0.9953702610000000
  515.70 0.9950725730000000
  515.73 0.9947718660000000
  515.76 0.9944687679999999
  515.78 0.9941639100000000
  515.81 0.9938579230000000
  515.84 0.9935514360000000
  515.86 0.9932450810000000
  515.89 0.9929394900000000
  515.92 0.9926352939999999
  515.94 0.9923331250000000
  515.97 0.9920336160000000
  516.00 0.9917374000000000
  516.02 0.9914397560000000
  516.05 0.9911316360000000
  516.08 0.9908131140000001
  516.10 0.9904844440000000
  516.13 0.9901458790000000
  516.16 0.9897976730000000
  516.18 0.9894400780000000
  516.21 0.9890733500000000
  516.24 0.9886977410000000
  516.26 0.9883135070000000
  516.29 0.9879209010000000
  516.32 0.9875201770000001
  516.34 0.9871115910000000
  516.37 0.9866953979999999
  516.40 0.9862718510000000
  516.42 0.9858412070000000
  516.45 0.9854037200000000
  516.48 0.9849596460000000
  516.50 0.9845092400000000
  516.53 0.9840527580000000
  516.56 0.9835904570000000
  516.58 0.9831225910000000
  516.61 0.9826494180000001
  516.64 0.9821711940000000
  516.66 0.9816881740000000
  516.69 0.9812006170000001
  516.72 0.9807087780000000
  516.74 0.9802129150000000
  516.77 0.9797132840000000
  516.80 0.9792101439999999
  516.82 0.9787037510000000
  516.85 0.9781943640000000
  516.88 0.9776822390000000
  516.90 0.9771676360000000
  516.93 0.9766508120000000
  516.96 0.9761320250000000
  516.98 0.9756115340000000
  517.01 0.9750893660000000
  517.04 0.9745630510000000
  517.06 0.9740317390000000
  517.09 0.9734952820000000
  517.12 0.9729535350000000
  517.14 0.9724063509999999
  517.17 0.9718535840000000
  517.20 0.9712950849999999
  517.22 0.9707307090000000
  517.25 0.9701603080000000
  517.28 0.9695837360000000
  517.30 0.9690008440000000
  517.33 0.9684114860000000
  517.36 0.9678155150000000
  517.38 0.9672127830000000
  517.41 0.9666031420000000
  517.44 0.9659864440000000
  517.46 0.9653625430000000
  517.49 0.9647312900000000
  517.52 0.9640925370000000
  517.54 0.9634461360000000
  517.57 0.9627919390000000
  517.60 0.9621297980000000
  517.63 0.9614595640000000
  517.65 0.9607810900000000
  517.68 0.9600942270000000
  517.71 0.9593988260000000
  517.73 0.9586947380000000
  517.76 0.9579818150000000
  517.79 0.9572599080000000
  517.81 0.9565288669999999
  517.84 0.9557885450000000
  517.87 0.9550387920000000
  517.89 0.9542794580000000
  517.92 0.9535103950000000
  517.95 0.9527314520000000
  517.97 0.9519424810000000
  518.00 0.9511433310000000
  518.03 0.9503295540000000
  518.05 0.9494973850000000
  518.08 0.9486472110000000
  518.11 0.9477794220000000
  518.13 0.9468944060000000
  518.16 0.9459925520000000
  518.19 0.9450742500000000
  518.22 0.9441398890000000
  518.24 0.9431898590000000
  518.27 0.9422245490000000
  518.30 0.9412443510000000
  518.32 0.9402496550000000
  518.35 0.9392408500000000
  518.38 0.9382183300000000
  518.40 0.9371824840000000
  518.43 0.9361337040000000
  518.46 0.9350723820000000
  518.48 0.9339989100000000
  518.51 0.9329136800000000
  518.54 0.9318170850000000
  518.56 0.9307095170000000
  518.59 0.9295913689999999
  518.62 0.9284630340000000
  518.65 0.9273249070000000
  518.67 0.9261773800000001
  518.70 0.9250208480000000
  518.73 0.9238557050000000
  518.75 0.9226823440000000
  518.78 0.9215011620000000
  518.81 0.9203125520000000
  518.83 0.9191169110000000
  518.86 0.9179146330000000
  518.89 0.9167061130000000
  518.91 0.9154917490000000
  518.94 0.9142719360000000
  518.97 0.9130470710000000
  519.00 0.9118175500000000
  519.02 0.9105773780000000
  519.05 0.9093150120000000
  519.08 0.9080310140000000
  519.10 0.9067262480000000
  519.13 0.9054015750000000
  519.16 0.9040578590000000
  519.18 0.9026959640000000
  519.21 0.9013167550000000
  519.24 0.8999210960000000
  519.26 0.8985098530000000
  519.29 0.8970838930000000
  519.32 0.8956440810000000
  519.35 0.8941912860000000
  519.37 0.8927263740000000
  519.40 0.8912502150000000
  519.43 0.8897636759999999
  519.45 0.8882676280000000
  519.48 0.8867629400000000
  519.51 0.8852504820000000
  519.53 0.8837311270000000
  519.56 0.8822057440000000
  519.59 0.8806752070000000
  519.62 0.8791403870000000
  519.64 0.8776021590000000
  519.67 0.8760613950000000
  519.70 0.8745189700000000
  519.72 0.8729757590000000
  519.75 0.8714326380000000
  519.78 0.8698904810000000
  519.80 0.8683501660000000
  519.83 0.8668125690000000
  519.86 0.8652785680000000
  519.89 0.8637490420000000
  519.91 0.8622248680000000
  519.94 0.8607069260000000
  519.97 0.8591960960000000
  519.99 0.8576932580000000
  520.02 0.8561959130000000
  520.05 0.8546967540000000
  520.07 0.8531955110000000
  520.10 0.8516922070000000
  520.13 0.8501868670000000
  520.16 0.8486795160000000
  520.18 0.8471701790000000
  520.21 0.8456588800000000
  520.24 0.8441456450000000
  520.26 0.8426304960000000
  520.29 0.8411134610000000
  520.32 0.8395945620000000
  520.35 0.8380738250000000
  520.37 0.8365512750000000
  520.40 0.8350269370000000
  520.43 0.8335008350000001
  520.45 0.8319729940000000
  520.48 0.8304434389999999
  520.51 0.8289121950000000
  520.54 0.8273792860000000
  520.56 0.8258447390000000
  520.59 0.8243085760000000
  520.62 0.8227708250000000
  520.64 0.8212315080000000
  520.67 0.8196906520000000
  520.70 0.8181482820000000
  520.72 0.8166044210000000
  520.75 0.8150590960000000
  520.78 0.8135123310000000
  520.81 0.8119641520000001
  520.83 0.8104145830000000
  520.86 0.8088636490000000
  520.89 0.8073113760000000
  520.91 0.8057577880000000
  520.94 0.8042029120000000
  520.97 0.8026467710000000
  521.00 0.8010893910000000
  521.02 0.7995306290000000
  521.05 0.7979702160000000
  521.08 0.7964081540000000
  521.10 0.7948444510000000
  521.13 0.7932791130000000
  521.16 0.7917121480000000
  521.19 0.7901435630000000
  521.21 0.7885733640000000
  521.24 0.7870015590000000
  521.27 0.7854281550000000
  521.29 0.7838531600000000
  521.32 0.7822765790000000
  521.35 0.7806984210000000
  521.38 0.7791186919999999
  521.40 0.7775374000000000
  521.43 0.7759545510000000
  521.46 0.7743701540000000
  521.49 0.7727842140000000
  521.51 0.7711967400000000
  521.54 0.7696077380000000
  521.57 0.7680172150000000
  521.59 0.7664251790000000
  521.62 0.7648316370000000
  521.65 0.7632365950000000
  521.68 0.7616400620000000
  521.70 0.7600420440000000
  521.73 0.7584425490000000
  521.76 0.7568415830000000
  521.78 0.7552391550000001
  521.81 0.7536352700000000
  521.84 0.7520299360000000
  521.87 0.7504231620000000
  521.89 0.7488149520000000
  521.92 0.7472053160000000
  521.95 0.7455942600000000
  521.98 0.7439817909999999
  522.00 0.7423679160000000
  522.03 0.7407525370000000
  522.06 0.7391355830000000
  522.08 0.7375170570000000
  522.11 0.7358969620000000
  522.14 0.7342753020000000
  522.17 0.7326520790000000
  522.19 0.7310272980000000
  522.22 0.7294009600000000
  522.25 0.7277730710000000
  522.28 0.7261436320000000
  522.30 0.7245126470000000
  522.33 0.7228801190000000
  522.36 0.7212460520000000
  522.38 0.7196104480000000
  522.41 0.7179733120000000
  522.44 0.7163346450000000
  522.47 0.7146944530000000
  522.49 0.7130527370000000
  522.52 0.7114095010000000
  522.55 0.7097647490000000
  522.58 0.7081184830000000
  522.60 0.7064707080000000
  522.63 0.7048214250000000
  522.66 0.7031706390000000
  522.68 0.7015183530000000
  522.71 0.6998645700000000
  522.74 0.6982092930000000
  522.77 0.6965525259999999
  522.79 0.6948942710000000
  522.82 0.6932345330000000
  522.85 0.6915733140000000
  522.88 0.6899106189999999
  522.90 0.6882464490000000
  522.93 0.6865808090000000
  522.96 0.6849137010000000
  522.99 0.6832451300000000
  523.01 0.6815749620000000
  523.04 0.6799022740000000
  523.07 0.6782269700000000
  523.09 0.6765491520000000
  523.12 0.6748689160000000
  523.15 0.6731863620000000
  523.18 0.6715015910000000
  523.20 0.6698146990000000
  523.23 0.6681257880000000
  523.26 0.6664349560000000
  523.29 0.6647423020000000
  523.31 0.6630479270000000
  523.34 0.6613519289999999
  523.37 0.6596544090000001
  523.40 0.6579554650000000
  523.42 0.6562551980000000
  523.45 0.6545537070000000
  523.48 0.6528510930000000
  523.51 0.6511474540000000
  523.53 0.6494428920000000
  523.56 0.6477375060000000
  523.59 0.6460313950000000
  523.62 0.6443246610000000
  523.64 0.6426174040000000
  523.67 0.6409097230000000
  523.70 0.6392017200000000
  523.72 0.6374934940000000
  523.75 0.6357851460000000
  523.78 0.6340767760000000
  523.81 0.6323684860000000
  523.83 0.6306603750000001
  523.86 0.6289525450000000
  523.89 0.6272450960000000
  523.92 0.6255381290000001
  523.94 0.6238317450000000
  523.97 0.6221260450000000
  524.00 0.6204211300000000
  524.03 0.6187177950000000
  524.05 0.6170167090000001
  524.08 0.6153176400000000
  524.11 0.6136203600000000
  524.14 0.6119246360000000
  524.16 0.6102302370000000
  524.19 0.6085369320000000
  524.22 0.6068444900000000
  524.25 0.6051526800000000
  524.27 0.6034612680000000
  524.30 0.6017700240000000
  524.33 0.6000787160000000
  524.36 0.5983871110000000
  524.38 0.5966949770000000
  524.41 0.5950020810000000
  524.44 0.5933081920000000
  524.47 0.5916130750000000
  524.49 0.5899164990000000
  524.52 0.5882182300000000
  524.55 0.5865180350000000
  524.58 0.5848156810000000
  524.60 0.5831109340000000
  524.63 0.5814035600000000
  524.66 0.5796933270000000
  524.69 0.5779799990000000
  524.71 0.5762633430000000
  524.74 0.5745431250000000
  524.77 0.5728191090000000
  524.80 0.5710910630000000
  524.82 0.5693587510000000
  524.85 0.5676219370000000
  524.88 0.5658803890000000
  524.91 0.5641338690000000
  524.93 0.5623821430000000
  524.96 0.5606249760000001
  524.99 0.5588621310000000
  525.02 0.5570937660000000
  525.04 0.5553212760000000
  525.07 0.5535448530000000
  525.10 0.5517645520000000
  525.13 0.5499804240000000
  525.15 0.5481925210000000
  525.18 0.5464008970000001
  525.21 0.5446056040000000
  525.24 0.5428066950000000
  525.27 0.5410042210000000
  525.29 0.5391982370000000
  525.32 0.5373887939999999
  525.35 0.5355759450000001
  525.38 0.5337597440000000
  525.40 0.5319402420000000
  525.43 0.5301174930000000
  525.46 0.5282915500000001
  525.49 0.5264624650000000
  525.51 0.5246302920000000
  525.54 0.5227950830000000
  525.57 0.5209568919999999
  525.60 0.5191157709999999
  525.62 0.5172717740000000
  525.65 0.5154249540000000
  525.68 0.5135753630000000
  525.71 0.5117230560000000
  525.73 0.5098680850000000
  525.76 0.5080105029999999
  525.79 0.5061503650000000
  525.82 0.5042877220000000
  525.85 0.5024226290000000
  525.87 0.5005551390000000
  525.90 0.4986853050000000
  525.93 0.4968131810000000
  525.96 0.4949388200000000
  525.98 0.4930622760000000
  526.01 0.4911835900000000
  526.04 0.4893026750000000
  526.07 0.4874194560000000
  526.09 0.4855338780000000
  526.12 0.4836458860000000
  526.15 0.4817554250000000
  526.18 0.4798624390000000
  526.21 0.4779668720000000
  526.23 0.4760686690000000
  526.26 0.4741677750000000
  526.29 0.4722641340000000
  526.32 0.4703576910000000
  526.34 0.4684483900000000
  526.37 0.4665361750000000
  526.40 0.4646209900000000
  526.43 0.4627027810000000
  526.45 0.4607814910000000
  526.48 0.4588570640000000
  526.51 0.4569294450000000
  526.54 0.4549985770000000
  526.57 0.4530644050000000
  526.59 0.4511268740000000
  526.62 0.4491859260000000
  526.65 0.4472415070000000
  526.68 0.4452935590000000
  526.70 0.4433420270000000
  526.73 0.4413868560000000
  526.76 0.4394279880000000
  526.79 0.4374653670000000
  526.81 0.4354989380000000
  526.84 0.4335286440000000
  526.87 0.4315544290000000
  526.90 0.4295762360000000
  526.93 0.4275940100000000
  526.95 0.4256076930000000
  526.98 0.4236172300000000
  527.01 0.4216227020000000
  527.04 0.4196258180000000
  527.06 0.4176269720000000
  527.09 0.4156259910000000
  527.12 0.4136227020000000
  527.15 0.4116169320000000
  527.18 0.4096085080000000
  527.20 0.4075972570000000
  527.23 0.4055830070000000
  527.26 0.4035655820000000
  527.29 0.4015448110000000
  527.31 0.3995205200000000
  527.34 0.3974925340000000
  527.37 0.3954606810000000
  527.40 0.3934247860000000
  527.43 0.3913846750000000
  527.45 0.3893401750000000
  527.48 0.3872911100000000
  527.51 0.3852373070000000
  527.54 0.3831785920000000
  527.57 0.3811147890000000
  527.59 0.3790457250000000
  527.62 0.3769712240000000
  527.65 0.3748911110000000
  527.68 0.3728052120000000
  527.70 0.3707133520000000
  527.73 0.3686153550000000
  527.76 0.3665110460000000
  527.79 0.3644002490000000
  527.82 0.3622827890000000
  527.84 0.3601584910000000
  527.87 0.3580271790000000
  527.90 0.3558886760000000
  527.93 0.3537428080000000
  527.96 0.3515893970000000
  527.98 0.3494282680000000
  528.01 0.3472589130000000
  528.04 0.3450782240000000
  528.07 0.3428858600000000
  528.09 0.3406823070000000
  528.12 0.3384680510000000
  528.15 0.3362435760000000
  528.18 0.3340093680000000
  528.21 0.3317659130000000
  528.23 0.3295136980000000
  528.26 0.3272532080000000
  528.29 0.3249849320000000
  528.32 0.3227093560000000
  528.35 0.3204269680000000
  528.37 0.3181382550000000
  528.40 0.3158437060000000
  528.43 0.3135438090000000
  528.46 0.3112390540000000
  528.49 0.3089299280000000
  528.51 0.3066169230000000
  528.54 0.3043005260000000
  528.57 0.3019812290000000
  528.60 0.2996595210000000
  528.63 0.2973358940000000
  528.65 0.2950108380000000
  528.68 0.2926848440000000
  528.71 0.2903584050000000
  528.74 0.2880320120000000
  528.76 0.2857061560000000
  528.79 0.2833813320000000
  528.82 0.2810580310000000
  528.85 0.2787367470000000
  528.88 0.2764179740000000
  528.90 0.2741022040000000
  528.93 0.2717899320000000
  528.96 0.2694816530000000
  528.99 0.2671778610000000
  529.02 0.2648769650000000
  529.04 0.2625706270000000
  529.07 0.2602583600000000
  529.10 0.2579406670000000
  529.13 0.2556180540000000
  529.16 0.2532910280000000
  529.18 0.2509600940000000
  529.21 0.2486257590000000
  529.24 0.2462885310000000
  529.27 0.2439489150000000
  529.30 0.2416074200000000
  529.32 0.2392645530000000
  529.35 0.2369208230000000
  529.38 0.2345767380000000
  529.41 0.2322328070000000
  529.44 0.2298895390000000
  529.46 0.2275474430000000
  529.49 0.2252070290000000
  529.52 0.2228688080000000
  529.55 0.2205332890000000
  529.58 0.2182009840000000
  529.60 0.2158724030000000
  529.63 0.2135480590000000
  529.66 0.2112284610000000
  529.69 0.2089141240000000
  529.72 0.2066055580000000
  529.75 0.2043032770000000
  529.77 0.2020077930000000
  529.80 0.1997196210000000
  529.83 0.1974392730000000
  529.86 0.1951672640000000
  529.89 0.1929041080000000
  529.91 0.1906503200000000
  529.94 0.1884064140000000
  529.97 0.1861729060000000
  530.00 0.1839503110000000
  530.03 0.1817289990000000
  530.05 0.1794965490000000
  530.08 0.1772543620000000
  530.11 0.1750039100000000
  530.14 0.1727466670000000
  530.17 0.1704841070000000
  530.19 0.1682177040000000
  530.22 0.1659489340000000
  530.25 0.1636792740000000
  530.28 0.1614102020000000
  530.31 0.1591431960000000
  530.34 0.1568797370000000
  530.36 0.1546213040000000
  530.39 0.1523693780000000
  530.42 0.1501254440000000
  530.45 0.1478909830000000
  530.48 0.1456674790000000
  530.50 0.1434564200000000
  530.53 0.1412592890000000
  530.56 0.1390775760000000
  530.59 0.1369127670000000
  530.62 0.1347663510000000
  530.64 0.1326398200000000
  530.67 0.1305346630000000
  530.70 0.1284523720000000
  530.73 0.1263944410000000
  530.76 0.1243623620000000
  530.79 0.1223576320000000
  530.81 0.1203817440000000
  530.84 0.1184361970000000
  530.87 0.1165224880000000
  530.90 0.1146421140000000
  530.93 0.1127965760000000
  530.95 0.1109873740000000
  530.98 0.1092160090000000
  531.01 0.1074812460000000
  531.04 0.1057580480000000
  531.07 0.1040407570000000
  531.10 0.1023302820000000
  531.12 0.1006275320000000
  531.15 0.0989334160000000
  531.18 0.0972488460000000
  531.21 0.0955747330000000
  531.24 0.0939119870000000
  531.26 0.0922615220000000
  531.29 0.0906242500000000
  531.32 0.0890010830000000
  531.35 0.0873929370000000
  531.38 0.0858007260000000
  531.41 0.0842253650000000
  531.43 0.0826677680000000
  531.46 0.0811288540000000
  531.49 0.0796095380000000
  531.52 0.0781107380000000
  531.55 0.0766333720000000
  531.58 0.0751783580000000
  531.60 0.0737466160000000
  531.63 0.0723390650000000
  531.66 0.0709566260000000
  531.69 0.0696002200000000
  531.72 0.0682707680000000
  531.75 0.0669691920000000
  531.77 0.0656964150000000
  531.80 0.0644533600000000
  531.83 0.0632409510000000
  531.86 0.0620601130000000
  531.89 0.0609117700000000
  531.91 0.0597968480000000
  531.94 0.0587162730000000
  531.97 0.0576709720000000
  532.00 0.0566618730000000
  532.03 0.0556776560000000
  532.06 0.0547060740000000
  532.08 0.0537472110000000
  532.11 0.0528011520000000
  532.14 0.0518679830000000
  532.17 0.0509477880000000
  532.20 0.0500406530000000
  532.23 0.0491466630000000
  532.25 0.0482659030000000
  532.28 0.0473984600000000
  532.31 0.0465444180000000
  532.34 0.0457038630000000
  532.37 0.0448768800000000
  532.40 0.0440635560000000
  532.42 0.0432639750000000
  532.45 0.0424782250000000
  532.48 0.0417063890000000
  532.51 0.0409485550000000
  532.54 0.0402048090000000
  532.57 0.0394752350000000
  532.59 0.0387599210000000
  532.62 0.0380589520000000
  532.65 0.0373724140000000
  532.68 0.0367003940000000
  532.71 0.0360429780000000
  532.74 0.0354002510000000
  532.77 0.0347723020000000
  532.79 0.0341592150000000
  532.82 0.0335610770000000
  532.85 0.0329779750000000
  532.88 0.0324099960000000
  532.91 0.0318572260000000
  532.94 0.0313197510000000
  532.96 0.0307976580000000
  532.99 0.0302910350000000
  533.02 0.0297980110000000
  533.05 0.0293133980000000
  533.08 0.0288368300000000
  533.11 0.0283682200000000
  533.13 0.0279074770000000
  533.16 0.0274545120000000
  533.19 0.0270092360000000
  533.22 0.0265715600000000
  533.25 0.0261413950000000
  533.28 0.0257186500000000
  533.30 0.0253032360000000
  533.33 0.0248950650000000
  533.36 0.0244940450000000
  533.39 0.0241000880000000
  533.42 0.0237131030000000
  533.45 0.0233330020000000
  533.48 0.0229596930000000
  533.50 0.0225930880000000
  533.53 0.0222330950000000
  533.56 0.0218796260000000
  533.59 0.0215325900000000
  533.62 0.0211918970000000
  533.65 0.0208574560000000
  533.67 0.0205291770000000
  533.70 0.0202069710000000
  533.73 0.0198907460000000
  533.76 0.0195804130000000
  533.79 0.0192758800000000
  533.82 0.0189770580000000
  533.85 0.0186838550000000
  533.87 0.0183961800000000
  533.90 0.0181139440000000
  533.93 0.0178370560000000
  533.96 0.0175654230000000
  533.99 0.0172989570000000
  534.02 0.0170373240000000
  534.05 0.0167794470000000
  534.07 0.0165251840000000
  534.10 0.0162745080000000
  534.13 0.0160273960000000
  534.16 0.0157838210000000
  534.19 0.0155437580000000
  534.22 0.0153071820000000
  534.25 0.0150740660000000
  534.27 0.0148443860000000
  534.30 0.0146181160000000
  534.33 0.0143952310000000
  534.36 0.0141757050000000
  534.39 0.0139595120000000
  534.42 0.0137466270000000
  534.44 0.0135370240000000
  534.47 0.0133306780000000
  534.50 0.0131275640000000
  534.53 0.0129276540000000
  534.56 0.0127309240000000
  534.59 0.0125373490000000
  534.62 0.0123469020000000
  534.64 0.0121595570000000
  534.67 0.0119752900000000
  534.70 0.0117940740000000
  534.73 0.0116158830000000
  534.76 0.0114406920000000
  534.79 0.0112684750000000
  534.82 0.0110992060000000
  534.85 0.0109328590000000
  534.87 0.0107694090000000
  534.90 0.0106088290000000
  534.93 0.0104510950000000
  534.96 0.0102961790000000
  534.99 0.0101440550000000
  535.02 0.0099945240000000
  535.05 0.0098468200000000
  535.07 0.0097008600000000
  535.10 0.0095566480000000
  535.13 0.0094141890000000
  535.16 0.0092734860000000
  535.19 0.0091345430000000
  535.22 0.0089973630000000
  535.25 0.0088619520000000
  535.27 0.0087283130000000
  535.30 0.0085964490000000
  535.33 0.0084663650000000
  535.36 0.0083380640000000
  535.39 0.0082115510000000
  535.42 0.0080868290000000
  535.45 0.0079639020000000
  535.48 0.0078427750000000
  535.50 0.0077234500000000
  535.53 0.0076059330000000
  535.56 0.0074902260000000
  535.59 0.0073763340000000
  535.62 0.0072642620000000
  535.65 0.0071540110000000
  535.68 0.0070455880000000
  535.70 0.0069389950000000
  535.73 0.0068342360000000
  535.76 0.0067313160000000
  535.79 0.0066302390000000
  535.82 0.0065310080000000
  535.85 0.0064336270000000
  535.88 0.0063381000000000
  535.91 0.0062444320000000
  535.93 0.0061526260000000
  535.96 0.0060626860000000
  535.99 0.0059746160000000
  536.02 0.0058882260000000
  536.05 0.0058029840000000
  536.08 0.0057188540000000
  536.11 0.0056358300000000
  536.14 0.0055539070000000
  536.16 0.0054730770000000
  536.19 0.0053933370000000
  536.22 0.0053146790000000
  536.25 0.0052370980000000
  536.28 0.0051605890000000
  536.31 0.0050851440000000
  536.34 0.0050107590000000
  536.37 0.0049374270000000
  536.39 0.0048651440000000
  536.42 0.0047939020000000
  536.45 0.0047236960000000
  536.48 0.0046545200000000
  536.51 0.0045863680000000
  536.54 0.0045192350000000
  536.57 0.0044531140000000
  536.60 0.0043880000000000
  536.62 0.0043238860000000
  536.65 0.0042607670000000
  536.68 0.0041986370000000
  536.71 0.0041374910000000
  536.74 0.0040773210000000
  536.77 0.0040181220000000
  536.80 0.0039598890000000
  536.83 0.0039026150000000
  536.86 0.0038462950000000
  536.88 0.0037909220000000
  536.91 0.0037364910000000
  536.94 0.0036829950000000
  536.97 0.0036304290000000
  537.00 0.0035787870000000
  537.03 0.0035278850000000
  537.06 0.0034775250000000
  537.09 0.0034277130000000
  537.11 0.0033784530000000
  537.14 0.0033297490000000
  537.17 0.0032816060000000
  537.20 0.0032340290000000
  537.23 0.0031870210000000
  537.26 0.0031405890000000
  537.29 0.0030947350000000
  537.32 0.0030494660000000
  537.35 0.0030047850000000
  537.37 0.0029606970000000
  537.40 0.0029172060000000
  537.43 0.0028743170000000
  537.46 0.0028320360000000
  537.49 0.0027903650000000
  537.52 0.0027493100000000
  537.55 0.0027088760000000
  537.58 0.0026690670000000
  537.61 0.0026298870000000
  537.63 0.0025913420000000
  537.66 0.0025534360000000
  537.69 0.0025161730000000
  537.72 0.0024795580000000
  537.75 0.0024435960000000
  537.78 0.0024082910000000
  537.81 0.0023736480000000
  537.84 0.0023396710000000
  537.87 0.0023063660000000
  537.89 0.0022737360000000
  537.92 0.0022417870000000
  537.95 0.0022105230000000
  537.98 0.0021799490000000
  538.01 0.0021500300000000
  538.04 0.0021203360000000
  538.07 0.0020907670000000
  538.10 0.0020613470000000
  538.13 0.0020321000000000
  538.16 0.0020030490000000
  538.18 0.0019742200000000
  538.21 0.0019456340000000
  538.24 0.0019173180000000
  538.27 0.0018892940000000
  538.30 0.0018615870000000
  538.33 0.0018342210000000
  538.36 0.0018072200000000
  538.39 0.0017806070000000
  538.42 0.0017544080000000
  538.44 0.0017286460000000
  538.47 0.0017033450000000
  538.50 0.0016785300000000
  538.53 0.0016542240000000
  538.56 0.0016304520000000
  538.59 0.0016072390000000
  538.62 0.0015846070000000
  538.65 0.0015625820000000
  538.68 0.0015411870000000
  538.71 0.0015204480000000
  538.74 0.0015003870000000
  538.76 0.0014810300000000
  538.79 0.0014624010000000
  538.82 0.0014445240000000
  538.85 0.0014274240000000
  538.88 0.0014111240000000
  538.91 0.0013956490000000
  538.94 0.0013810240000000
  538.97 0.0013672730000000
  539.00 0.0013544200000000
  539.03 0.0013422580000000
  539.05 0.0013304200000000
  539.08 0.0013188940000000
  539.11 0.0013076710000000
  539.14 0.0012967430000000
  539.17 0.0012861020000000
  539.20 0.0012757380000000
  539.23 0.0012656430000000
  539.26 0.0012558090000000
  539.29 0.0012462280000000
  539.32 0.0012368900000000
  539.35 0.0012277860000000
  539.37 0.0012189100000000
  539.40 0.0012102510000000
  539.43 0.0012018010000000
  539.46 0.0011935530000000
  539.49 0.0011854960000000
  539.52 0.0011776230000000
  539.55 0.0011699250000000
  539.58 0.0011623930000000
  539.61 0.0011550190000000
  539.64 0.0011477940000000
  539.67 0.0011407090000000
  539.69 0.0011337560000000
  539.72 0.0011269270000000
  539.75 0.0011202120000000
  539.78 0.0011136030000000
  539.81 0.0011070910000000
  539.84 0.0011006680000000
  539.87 0.0010943250000000
  539.90 0.0010880530000000
  539.93 0.0010818430000000
  539.96 0.0010756880000000
  539.99 0.0010695780000000
  540.02 0.0010635210000000
  540.04 0.0010576060000000
  540.07 0.0010518390000000
  540.10 0.0010462130000000
  540.13 0.0010407200000000
  540.16 0.0010353540000000
  540.19 0.0010301070000000
  540.22 0.0010249720000000
  540.25 0.0010199400000000
  540.28 0.0010150060000000
  540.31 0.0010101610000000
  540.34 0.0010053990000000
  540.37 0.0010007110000000
  540.39 0.0009960910000000
