# HIMAWARI9 relative spectral response function for band 15
# (see http://www.data.jma.go.jp/mscweb/en/himawari89/space_segment/spsg_ahi.html#band)
# converted from 
# http://www.data.jma.go.jp/mscweb/en/himawari89/space_segment/srf_201309/AHI-08_SpectralResponsivity.zip
# http://www.data.jma.go.jp/mscweb/en/himawari89/space_segment/srf_201310/AHI-09_SpectralResponsivity.zip
# 
# LAMBDA   RSR
# 
11261.26 0.0009990190225000
11262.53 0.0010000055110000
11263.80 0.0009992086585000
11265.07 0.0009958453496000
11266.34 0.0009909894549000
11267.61 0.0009849965630000
11268.88 0.0009780576738000
11270.15 0.0009710277109000
11271.42 0.0009642037604000
11272.69 0.0009577566670000
11273.96 0.0009523598834000
11275.23 0.0009479943336000
11276.50 0.0009449581411000
11277.77 0.0009435894005000
11279.04 0.0009436998869000
11280.32 0.0009452962477000
11281.59 0.0009484504938000
11282.86 0.0009526259562000
11284.13 0.0009581579100000
11285.41 0.0009645900134000
11286.68 0.0009717471321000
11287.96 0.0009784532215000
11289.23 0.0009732510645000
11290.50 0.0010179094790000
11291.78 0.0010563620230000
11293.05 0.0010640507590000
11294.33 0.0010715299880000
11295.61 0.0010788293190000
11296.88 0.0010857976660000
11298.16 0.0010924623110000
11299.44 0.0010988683190000
11300.71 0.0011051211900000
11301.99 0.0011112608340000
11303.27 0.0011172945910000
11304.54 0.0011235154150000
11305.82 0.0011298069870000
11307.10 0.0011363526720000
11308.38 0.0011429830990000
11309.66 0.0011499728690000
11310.94 0.0011571929100000
11312.22 0.0011647062740000
11313.50 0.0011724486240000
11314.78 0.0011803488150000
11316.06 0.0011884851970000
11317.34 0.0011967603430000
11318.62 0.0012051525500000
11319.90 0.0012136403270000
11321.18 0.0012222031950000
11322.46 0.0012309404480000
11323.75 0.0012398159040000
11325.03 0.0012488985440000
11326.31 0.0012584534730000
11327.59 0.0012683318300000
11328.88 0.0012787662980000
11330.16 0.0012899249320000
11331.44 0.0013017514720000
11332.73 0.0013146138720000
11334.01 0.0013282996250000
11335.30 0.0013429299310000
11336.58 0.0013591019050000
11337.87 0.0013761931370000
11339.15 0.0013944633770000
11340.44 0.0014141765000000
11341.73 0.0014346872610000
11343.01 0.0014565277900000
11344.30 0.0014793543350000
11345.59 0.0015030248910000
11346.87 0.0015274761560000
11348.16 0.0015524872830000
11349.45 0.0015777929930000
11350.74 0.0016034628840000
11352.03 0.0016292055150000
11353.32 0.0016546687820000
11354.60 0.0016799944790000
11355.89 0.0017048377090000
11357.18 0.0017291349610000
11358.47 0.0017529246890000
11359.76 0.0017756036380000
11361.05 0.0017977430510000
11362.35 0.0018187358660000
11363.64 0.0018387590670000
11364.93 0.0018582421310000
11366.22 0.0018762144320000
11367.51 0.0018935173740000
11368.80 0.0019097685090000
11370.10 0.0019247492530000
11371.39 0.0019392907200000
11372.68 0.0019527698400000
11373.98 0.0019655886240000
11375.27 0.0019778305780000
11376.56 0.0019892267680000
11377.86 0.0020004086320000
11379.15 0.0020113900030000
11380.45 0.0020220111450000
11381.74 0.0020328788760000
11383.04 0.0020439916220000
11384.34 0.0020556212110000
11385.63 0.0020681269240000
11386.93 0.0020813952160000
11388.22 0.0020955565020000
11389.52 0.0021113254080000
11390.82 0.0021280143820000
11392.12 0.0021461238190000
11393.41 0.0021659624780000
11394.71 0.0021869411540000
11396.01 0.0022098795410000
11397.31 0.0022342617940000
11398.61 0.0022598229090000
11399.91 0.0022871422430000
11401.21 0.0023153614530000
11402.51 0.0023446540910000
11403.81 0.0023745916890000
11405.11 0.0024048875460000
11406.41 0.0024354108900000
11407.71 0.0024659106460000
11409.01 0.0024959083520000
11410.31 0.0025254172840000
11411.62 0.0025541966970000
11412.92 0.0025814531560000
11414.22 0.0026079464010000
11415.53 0.0026328848490000
11416.83 0.0026563670310000
11418.13 0.0026788570490000
11419.44 0.0026992599770000
11420.74 0.0027187842870000
11422.04 0.0027370883510000
11423.35 0.0027540595100000
11424.65 0.0027705665190000
11425.96 0.0027862259080000
11427.27 0.0028015179950000
11428.57 0.0028168832870000
11429.88 0.0028324056600000
11431.18 0.0028482168930000
11432.49 0.0028648717730000
11433.80 0.0028823250890000
11435.11 0.0029010051670000
11436.41 0.0029212637430000
11437.72 0.0029426003330000
11439.03 0.0029656370000000
11440.34 0.0029903062950000
11441.65 0.0030164843790000
11442.96 0.0030447025490000
11444.27 0.0030740772600000
11445.58 0.0031049823420000
11446.89 0.0031375038320000
11448.20 0.0031708084080000
11449.51 0.0032055830440000
11450.82 0.0032411970280000
11452.13 0.0032773612680000
11453.44 0.0033144437280000
11454.75 0.0033518886670000
11456.07 0.0033896669390000
11457.38 0.0034276705240000
11458.69 0.0034660105330000
11460.00 0.0035043729250000
11461.32 0.0035430047720000
11462.63 0.0035816071870000
11463.95 0.0036201925080000
11465.26 0.0036590723020000
11466.57 0.0036981217820000
11467.89 0.0037375671400000
11469.21 0.0037775993590000
11470.52 0.0038181745790000
11471.84 0.0038593585180000
11473.15 0.0039013819380000
11474.47 0.0039440461080000
11475.79 0.0039876463010000
11477.10 0.0040323242970000
11478.42 0.0040777730820000
11479.74 0.0041243812100000
11481.06 0.0041716822860000
11482.37 0.0042197793220000
11483.69 0.0042686977560000
11485.01 0.0043183392210000
11486.33 0.0043684748530000
11487.65 0.0044191792180000
11488.97 0.0044702180610000
11490.29 0.0045215047700000
11491.61 0.0045731578730000
11492.93 0.0046248182780000
11494.25 0.0046768731070000
11495.57 0.0047293005610000
11496.90 0.0047820075220000
11498.22 0.0048353049400000
11499.54 0.0048888246680000
11500.86 0.0049429026590000
11502.19 0.0049979843940000
11503.51 0.0050540593210000
11504.83 0.0051110438330000
11506.16 0.0051696723980000
11507.48 0.0052297241080000
11508.80 0.0052909550110000
11510.13 0.0053545838500000
11511.45 0.0054195255160000
11512.78 0.0054864878920000
11514.10 0.0055558114240000
11515.43 0.0056264251160000
11516.76 0.0056995431550000
11518.08 0.0057745751870000
11519.41 0.0058511682710000
11520.74 0.0059294758280000
11522.06 0.0060089055210000
11523.39 0.0060895054210000
11524.72 0.0061713248680000
11526.05 0.0062538366010000
11527.38 0.0063367466330000
11528.71 0.0064206429950000
11530.04 0.0065043035570000
11531.37 0.0065880269110000
11532.70 0.0066720448440000
11534.03 0.0067550199800000
11535.36 0.0068383007680000
11536.69 0.0069213312090000
11538.02 0.0070030796650000
11539.35 0.0070852604910000
11540.68 0.0071663660530000
11542.01 0.0072473932470000
11543.35 0.0073284500610000
11544.68 0.0074090651210000
11546.01 0.0074902944780000
11547.34 0.0075717452690000
11548.68 0.0076536977790000
11550.01 0.0077366631420000
11551.35 0.0078205783770000
11552.68 0.0079056235230000
11554.02 0.0079927325970000
11555.35 0.0080818506550000
11556.69 0.0081726906260000
11558.02 0.0082662996420000
11559.36 0.0083617441360000
11560.69 0.0084600833570000
11562.03 0.0085613760820000
11563.37 0.0086650078470000
11564.70 0.0087722629700000
11566.04 0.0088817430460000
11567.38 0.0089944820130000
11568.72 0.0091108307100000
11570.06 0.0092294447640000
11571.40 0.0093518649680000
11572.73 0.0094768928180000
11574.07 0.0096047346700000
11575.41 0.0097363151390000
11576.75 0.0098699510220000
11578.09 0.0100078069300000
11579.43 0.0101561861300000
11580.78 0.0103090489300000
11582.12 0.0104646212600000
11583.46 0.0106230059600000
11584.80 0.0107843436800000
11586.14 0.0109483874700000
11587.49 0.0111151906500000
11588.83 0.0112847114400000
11590.17 0.0114573351800000
11591.52 0.0116324667400000
11592.86 0.0118109383600000
11594.20 0.0119920895000000
11595.55 0.0121768246600000
11596.89 0.0123650081000000
11598.24 0.0125566813500000
11599.58 0.0127521967400000
11600.93 0.0129521135700000
11602.27 0.0131566126200000
11603.62 0.0133659952600000
11604.97 0.0135803128900000
11606.31 0.0137994619300000
11607.66 0.0140245334200000
11609.01 0.0142551440000000
11610.36 0.0144916723600000
11611.70 0.0147327997200000
11613.05 0.0149799292000000
11614.40 0.0152327050600000
11615.75 0.0154907190900000
11617.10 0.0157543886100000
11618.45 0.0160230959200000
11619.80 0.0162969677100000
11621.15 0.0165756988100000
11622.50 0.0168591405000000
11623.85 0.0171473240400000
11625.20 0.0174398953400000
11626.56 0.0177376563900000
11627.91 0.0180409470900000
11629.26 0.0183490668600000
11630.61 0.0186627447100000
11631.96 0.0189828396700000
11633.32 0.0193095806200000
11634.67 0.0196436318900000
11636.03 0.0199851950700000
11637.38 0.0203026818500000
11638.73 0.0205994592000000
11640.09 0.0209032518700000
11641.44 0.0212140420200000
11642.80 0.0215297785500000
11644.15 0.0218530691700000
11645.51 0.0221834904800000
11646.87 0.0225191796000000
11648.22 0.0228628474400000
11649.58 0.0232140251100000
11650.94 0.0235718175300000
11652.30 0.0239381196000000
11653.65 0.0243116209400000
11655.01 0.0246922271600000
11656.37 0.0250806818700000
11657.73 0.0254757421300000
11659.09 0.0258785109200000
11660.45 0.0262887196900000
11661.81 0.0267057539100000
11663.17 0.0271313268400000
11664.53 0.0275648018000000
11665.89 0.0280048844700000
11667.25 0.0284544104700000
11668.61 0.0289119281100000
11669.97 0.0293788788400000
11671.34 0.0298543427600000
11672.70 0.0303368512200000
11674.06 0.0308305436500000
11675.42 0.0313369562700000
11676.79 0.0318527536000000
11678.15 0.0323815102300000
11679.51 0.0329199559400000
11680.88 0.0334711734600000
11682.24 0.0340398095900000
11683.61 0.0346217215500000
11684.97 0.0352173822800000
11686.34 0.0358289517200000
11687.70 0.0364520881600000
11689.07 0.0370903861500000
11690.44 0.0377422464200000
11691.80 0.0384063291900000
11693.17 0.0390845334800000
11694.54 0.0397758767900000
11695.91 0.0404714488200000
11697.27 0.0411634771700000
11698.64 0.0418622380200000
11700.01 0.0425702416200000
11701.38 0.0432883935600000
11702.75 0.0440177365700000
11704.12 0.0447568503100000
11705.49 0.0455062901000000
11706.86 0.0462652321100000
11708.23 0.0470343739600000
11709.60 0.0478147238700000
11710.97 0.0486053186200000
11712.34 0.0494072476700000
11713.72 0.0502191623900000
11715.09 0.0510810546800000
11716.46 0.0519831309100000
11717.83 0.0529033463100000
11719.21 0.0538371020500000
11720.58 0.0547893211000000
11721.96 0.0557609029500000
11723.33 0.0567456254600000
11724.70 0.0577516007200000
11726.08 0.0587771941100000
11727.45 0.0598236321000000
11728.83 0.0608946329100000
11730.21 0.0619962823900000
11731.58 0.0631179401900000
11732.96 0.0642641517200000
11734.33 0.0654350339600000
11735.71 0.0666318416000000
11737.09 0.0678584963900000
11738.47 0.0691100790400000
11739.85 0.0703870476600000
11741.22 0.0716779227100000
11742.60 0.0729816358100000
11743.98 0.0743113796500000
11745.36 0.0756681753600000
11746.74 0.0770543306600000
11748.12 0.0784687245500000
11749.50 0.0799151111700000
11750.88 0.0814100215400000
11752.26 0.0829758448400000
11753.64 0.0845746294200000
11755.03 0.0862068250700000
11756.41 0.0878667325000000
11757.79 0.0895610614600000
11759.17 0.0912882293700000
11760.56 0.0930748387200000
11761.94 0.0949032267800000
11763.32 0.0967622252900000
11764.71 0.0986546123100000
11766.09 0.1005802101000000
11767.47 0.1025400783000000
11768.86 0.1045345971000000
11770.24 0.1065642335000000
11771.63 0.1086321840000000
11773.02 0.1107324513000000
11774.40 0.1128836568000000
11775.79 0.1150850665000000
11777.18 0.1173232610000000
11778.56 0.1196022450000000
11779.95 0.1219159473000000
11781.34 0.1243301897000000
11782.73 0.1267879227000000
11784.12 0.1292883654000000
11785.50 0.1318352127000000
11786.89 0.1344585843000000
11788.28 0.1371517260000000
11789.67 0.1398882186000000
11791.06 0.1426834649000000
11792.45 0.1455428403000000
11793.84 0.1484651395000000
11795.23 0.1514327821000000
11796.63 0.1544660253000000
11798.02 0.1575596467000000
11799.41 0.1607095582000000
11800.80 0.1639142273000000
11802.20 0.1671842297000000
11803.59 0.1705162671000000
11804.98 0.1739078679000000
11806.38 0.1773623913000000
11807.77 0.1808778088000000
11809.16 0.1844558727000000
11810.56 0.1881172946000000
11811.95 0.1918468184000000
11813.35 0.1956627300000000
11814.74 0.1995662600000000
11816.14 0.2035483684000000
11817.54 0.2076512099000000
11818.93 0.2118293894000000
11820.33 0.2161141157000000
11821.73 0.2204993044000000
11823.13 0.2249624545000000
11824.52 0.2295138390000000
11825.92 0.2341443938000000
11827.32 0.2388572098000000
11828.72 0.2436443699000000
11830.12 0.2485025524000000
11831.52 0.2534549619000000
11832.92 0.2584745944000000
11834.32 0.2635706689000000
11835.72 0.2687391596000000
11837.12 0.2739899588000000
11838.52 0.2793383369000000
11839.92 0.2847634655000000
11841.33 0.2902555646000000
11842.73 0.2958322720000000
11844.13 0.3015099814000000
11845.53 0.3072718791000000
11846.94 0.3131556821000000
11848.34 0.3191431343000000
11849.75 0.3252471992000000
11851.15 0.3314690265000000
11852.55 0.3378326136000000
11853.96 0.3443415455000000
11855.36 0.3509833813000000
11856.77 0.3577803829000000
11858.18 0.3646810533000000
11859.58 0.3716823510000000
11860.99 0.3788320411000000
11862.40 0.3860321322000000
11863.80 0.3933170548000000
11865.21 0.4006931587000000
11866.62 0.4081123717000000
11868.03 0.4155327268000000
11869.44 0.4229978240000000
11870.85 0.4304580544000000
11872.25 0.4379023215000000
11873.66 0.4453662346000000
11875.07 0.4528043793000000
11876.48 0.4602014368000000
11877.90 0.4676416137000000
11879.31 0.4750749907000000
11880.72 0.4824992722000000
11882.13 0.4899908240000000
11883.54 0.4975008128000000
11884.95 0.5050471022000000
11886.37 0.5127319309000000
11887.78 0.5204900143000000
11889.19 0.5283366491000000
11890.61 0.5363340939000000
11892.02 0.5444859296000000
11893.43 0.5528026587000000
11894.85 0.5612740140000000
11896.26 0.5699641590000000
11897.68 0.5787581773000000
11899.10 0.5877219766000000
11900.51 0.5969110545000000
11901.93 0.6061423679000000
11903.34 0.6155920910000000
11904.76 0.6251179910000000
11906.18 0.6346195717999999
11907.60 0.6442030516000000
11909.02 0.6537353168000000
11910.43 0.6631316741000000
11911.85 0.6725123804000001
11913.27 0.6817131810000000
11914.69 0.6907867224000001
11916.11 0.6997115607000000
11917.53 0.7084422488000000
11918.95 0.7169463327000000
11920.37 0.7253519379000000
11921.79 0.7335985666000000
11923.21 0.7415873829000000
11924.64 0.7495980558000001
11926.06 0.7574740088000000
11927.48 0.7651829961000000
11928.90 0.7729748432000000
11930.33 0.7806849995000000
11931.75 0.7883611230000001
11933.17 0.7960898894000000
11934.60 0.8037967180000000
11936.02 0.8115087135000000
11937.45 0.8193725305000000
11938.87 0.8272683252000000
11940.30 0.8351147955000000
11941.72 0.8431230797000000
11943.15 0.8509678176000000
11944.58 0.8587896455000000
11946.00 0.8666331023000000
11947.43 0.8740891578000000
11948.86 0.8814627912000000
11950.29 0.8884683184000000
11951.72 0.8951921587000000
11953.14 0.9015446149000000
11954.57 0.9073865431000000
11956.00 0.9129093172000000
11957.43 0.9181339127000000
11958.86 0.9229799639000000
11960.29 0.9276363989999999
11961.72 0.9319979818000000
11963.15 0.9361516484000000
11964.58 0.9395131376000000
11966.02 0.9425653049000000
11967.45 0.9455434552999999
11968.88 0.9484650500000000
11970.31 0.9513752574000000
11971.75 0.9542848437000000
11973.18 0.9571972542000000
11974.61 0.9601297536000000
11976.05 0.9630726099000000
11977.48 0.9660208206999999
11978.92 0.9689599620000000
11980.35 0.9718714886000001
11981.79 0.9747332927000000
11983.22 0.9775212650000000
11984.66 0.9802080411000000
11986.10 0.9827906065000001
11987.53 0.9852112936000000
11988.97 0.9875651625000000
11990.41 0.9898239827000000
11991.85 0.9919050788000000
11993.28 0.9938000343000000
11994.72 0.9953946525000000
11996.16 0.9967561866000000
11997.60 0.9978254432000000
11999.04 0.9986572800000000
12000.48 0.9992652200000000
12001.92 0.9996662257000000
12003.36 0.9999176873000000
12004.80 0.9999961816000000
12006.24 0.9999965010000000
12007.68 0.9999150451000000
12009.13 0.9997931982000000
12010.57 0.9996439883000000
12012.01 0.9994890385000000
12013.46 0.9993339994000000
12014.90 0.9991925316000000
12016.34 0.9990627501000000
12017.79 0.9989222424999999
12019.23 0.9987283490000000
12020.68 0.9984477096000000
12022.12 0.9980708640000000
12023.57 0.9976293954000000
12025.01 0.9971529778000000
12026.46 0.9966328593000000
12027.90 0.9960530627000000
12029.35 0.9954229046000000
12030.80 0.9947284606000000
12032.25 0.9939797959000000
12033.69 0.9931717393000000
12035.14 0.9923033402000000
12036.59 0.9913866163000000
12038.04 0.9904205667000000
12039.49 0.9894243873000000
12040.94 0.9883810987000000
12042.39 0.9873092483000000
12043.84 0.9862026196000000
12045.29 0.9850716792000000
12046.74 0.9839170506000000
12048.19 0.9827379794000000
12049.64 0.9815480444000000
12051.10 0.9803248447000000
12052.55 0.9790884550000000
12054.00 0.9778177343000000
12055.46 0.9765010558000000
12056.91 0.9751358595000000
12058.36 0.9736840734000000
12059.82 0.9721665464000000
12061.27 0.9705633727000000
12062.73 0.9689144294000001
12064.18 0.9672960151000000
12065.64 0.9657156857000000
12067.09 0.9641756156000000
12068.55 0.9627047711000000
12070.01 0.9613308780000001
12071.46 0.9600582004000000
12072.92 0.9588543061000000
12074.38 0.9577691561000000
12075.84 0.9568027809000000
12077.29 0.9559939428999999
12078.75 0.9553365054000000
12080.21 0.9548315933000000
12081.67 0.9544646460000000
12083.13 0.9541734593000000
12084.59 0.9539609729000000
12086.05 0.9537957655000000
12087.51 0.9537311782000000
12088.97 0.9537354603000000
12090.44 0.9537507306000000
12091.90 0.9537453616000000
12093.36 0.9537027042000000
12094.82 0.9535394682000000
12096.29 0.9533117800000001
12097.75 0.9529681281000000
12099.21 0.9525398393000000
12100.68 0.9519929532000000
12102.14 0.9513667708000000
12103.61 0.9506741538000000
12105.07 0.9499266620000000
12106.54 0.9491545772000000
12108.00 0.9483764770999999
12109.47 0.9476183282000000
12110.94 0.9469202584999999
12112.40 0.9463119335000000
12113.87 0.9458309517000000
12115.34 0.9454737972000000
12116.81 0.9452490824000001
12118.27 0.9452213145000000
12119.74 0.9453074653000000
12121.21 0.9455347787000000
12122.68 0.9459049286000000
12124.15 0.9464324265000000
12125.62 0.9470442036000000
12127.09 0.9477374585000000
12128.56 0.9484799384000000
12130.03 0.9492076131000000
12131.51 0.9498950747000000
12132.98 0.9505292087000000
12134.45 0.9510400270000000
12135.92 0.9514524222000000
12137.40 0.9517068154000000
12138.87 0.9518219624000001
12140.34 0.9517778917000000
12141.82 0.9515846322000000
12143.29 0.9512320030000000
12144.77 0.9507539325000000
12146.24 0.9502062729000000
12147.72 0.9495540648000000
12149.19 0.9488815960000000
12150.67 0.9482481931000000
12152.14 0.9476933431000000
12153.62 0.9472416447999999
12155.10 0.9469541229000000
12156.58 0.9468246004000000
12158.05 0.9468753116000000
12159.53 0.9471195363000000
12161.01 0.9475341695000000
12162.49 0.9480336579999999
12163.97 0.9487609375000000
12165.45 0.9496256247000000
12166.93 0.9505989306000000
12168.41 0.9516517975000000
12169.89 0.9527321667000000
12171.37 0.9537788599000000
12172.85 0.9548216458000000
12174.34 0.9557930645000000
12175.82 0.9566527119000000
12177.30 0.9573429672000000
12178.78 0.9578643663999999
12180.27 0.9581574141000000
12181.75 0.9582499690000000
12183.24 0.9582031710000000
12184.72 0.9579343981000000
12186.21 0.9575647078000000
12187.69 0.9571009476000000
12189.18 0.9565714710000000
12190.66 0.9560414107000000
12192.15 0.9555396539000000
12193.63 0.9550528103000000
12195.12 0.9546413400000000
12196.61 0.9543528472000000
12198.10 0.9541571599999999
12199.59 0.9540812729000000
12201.07 0.9541513019000000
12202.56 0.9543271562000000
12204.05 0.9546227038000000
12205.54 0.9550369032000000
12207.03 0.9555056124000000
12208.52 0.9560259288000000
12210.01 0.9565826938999999
12211.50 0.9571287607000000
12212.99 0.9576632440000000
12214.49 0.9581663116000000
12215.98 0.9586227257000000
12217.47 0.9589577381000000
12218.96 0.9592060286000000
12220.46 0.9593572845000000
12221.95 0.9594049271000000
12223.44 0.9593914827000000
12224.94 0.9593187689000000
12226.43 0.9591761420000000
12227.93 0.9590458770000000
12229.42 0.9588858440000000
12230.92 0.9587268755000000
12232.42 0.9586051453000000
12233.91 0.9585106015000000
12235.41 0.9584520600000001
12236.91 0.9584559076000000
12238.40 0.9585231968000000
12239.90 0.9586318334000000
12241.40 0.9587726316000000
12242.90 0.9589732825000000
12244.40 0.9591316251000001
12245.90 0.9593028517000000
12247.40 0.9595042162000000
12248.90 0.9596368565000000
12250.40 0.9597838019000000
12251.90 0.9599171478000000
12253.40 0.9600060247000000
12254.90 0.9600521262000000
12256.40 0.9600819017000000
12257.91 0.9600866708000000
12259.41 0.9600607897000000
12260.91 0.9600365819000000
12262.42 0.9600474104000000
12263.92 0.9600679844000000
12265.42 0.9601799065000000
12266.93 0.9603300401000000
12268.43 0.9605462197000000
12269.94 0.9608505958000000
12271.44 0.9612302270000000
12272.95 0.9617188963000000
12274.46 0.9622958096000001
12275.96 0.9629260428000000
12277.47 0.9636160670000000
12278.98 0.9643172740000000
12280.49 0.9650168997000000
12281.99 0.9656598757000000
12283.50 0.9662617286000000
12285.01 0.9668011016000000
12286.52 0.9672417229000000
12288.03 0.9676081168000000
12289.54 0.9678599888000000
12291.05 0.9679566163000000
12292.56 0.9679583901000000
12294.07 0.9678181586000000
12295.59 0.9676088056000000
12297.10 0.9672893263000000
12298.61 0.9669368988000000
12300.12 0.9665746289000000
12301.64 0.9662026406000001
12303.15 0.9658908668000000
12304.66 0.9656353562000000
12306.18 0.9654776263000000
12307.69 0.9654547503000001
12309.21 0.9655243727000000
12310.72 0.9658075582000000
12312.24 0.9661754203000000
12313.75 0.9666996754000000
12315.27 0.9673575324000000
12316.79 0.9680847054000000
12318.31 0.9689142198000000
12319.82 0.9697665394000000
12321.34 0.9706204174000000
12322.86 0.9714351467000000
12324.38 0.9721607433000000
12325.90 0.9727982773000000
12327.42 0.9732342324000000
12328.94 0.9735473398000000
12330.46 0.9736762327000000
12331.98 0.9736480386000000
12333.50 0.9734760969000000
12335.02 0.9731305931999999
12336.54 0.9726868571000000
12338.06 0.9721632004000000
12339.59 0.9715877302000000
12341.11 0.9709866414000000
12342.63 0.9704071821000000
12344.16 0.9698593913000000
12345.68 0.9693997679000000
12347.20 0.9690773917000000
12348.73 0.9688618230000000
12350.25 0.9688357577000000
12351.78 0.9690006149000000
12353.30 0.9693093526000000
12354.83 0.9697930812000000
12356.36 0.9704682193000000
12357.88 0.9713104890000001
12359.41 0.9721968549000000
12360.94 0.9731698937000000
12362.47 0.9741817780000001
12364.00 0.9751743671999999
12365.52 0.9761666192000000
12367.05 0.9770682361000000
12368.58 0.9778745451999999
12370.11 0.9785524598999999
12371.64 0.9791039421000000
12373.17 0.9795317256000000
12374.71 0.9798192147000000
12376.24 0.9799959583000000
12377.77 0.9800500801000001
12379.30 0.9800308739000000
12380.83 0.9799507876000000
12382.37 0.9797703484000000
12383.90 0.9795971898000000
12385.43 0.9794596721000000
12386.97 0.9793802640000000
12388.50 0.9793787071000000
12390.04 0.9794874273000000
12391.57 0.9796070894000000
12393.11 0.9798207427000000
12394.65 0.9801282408000001
12396.18 0.9804817995000000
12397.72 0.9808951336000000
12399.26 0.9813610833000000
12400.79 0.9818327936000000
12402.33 0.9822826941000000
12403.87 0.9826895418000000
12405.41 0.9830242884000000
12406.95 0.9832611943000000
12408.49 0.9834235297000000
12410.03 0.9834638968000000
12411.57 0.9833666301000000
12413.11 0.9831718935000000
12414.65 0.9828794418000000
12416.19 0.9824526053000000
12417.73 0.9819898547000000
12419.27 0.9814702751000000
12420.82 0.9809261344000000
12422.36 0.9803838588000000
12423.90 0.9797464835000000
12425.45 0.9791329368000000
12426.99 0.9786328945000000
12428.54 0.9782286073999999
12430.08 0.9779329315000000
12431.63 0.9777515076000000
12433.17 0.9776708334000000
12434.72 0.9776676639000000
12436.26 0.9777618650000000
12437.81 0.9779323377000000
12439.36 0.9781486807999999
12440.91 0.9784107799000000
12442.45 0.9786571052000000
12444.00 0.9788251610000001
12445.55 0.9789618610000000
12447.10 0.9790149989000000
12448.65 0.9790099435000000
12450.20 0.9789375137000000
12451.75 0.9787599854000000
12453.30 0.9784828652000001
12454.85 0.9781197064000000
12456.40 0.9777041626000000
12457.95 0.9772476859000000
12459.51 0.9767638762999999
12461.06 0.9763160332000000
12462.61 0.9758929798000000
12464.17 0.9755460980000000
12465.72 0.9752808265000000
12467.27 0.9751142585000000
12468.83 0.9750188812000000
12470.38 0.9750580933000000
12471.94 0.9751718572000000
12473.49 0.9753646357000000
12475.05 0.9756205828000000
12476.61 0.9759234081000000
12478.16 0.9762346888000000
12479.72 0.9765357859000000
12481.28 0.9768074584000001
12482.84 0.9770159886000001
12484.39 0.9771444976000000
12485.95 0.9772143332000000
12487.51 0.9771524165000000
12489.07 0.9770036511000000
12490.63 0.9767255716000000
12492.19 0.9763649659000000
12493.75 0.9759034771000000
12495.31 0.9753580932000000
12496.88 0.9747462860000000
12498.44 0.9740973000000001
12500.00 0.9734058529000000
12501.56 0.9727046588000000
12503.13 0.9720359119999999
12504.69 0.9714181864000000
12506.25 0.9708784963000000
12507.82 0.9704314251000000
12509.38 0.9700668877000000
12510.95 0.9698007355000000
12512.51 0.9695974274000000
12514.08 0.9694568171000000
12515.64 0.9693668633000000
12517.21 0.9693402208000000
12518.78 0.9693082217000000
12520.35 0.9692538016000000
12521.91 0.9691617953000000
12523.48 0.9689940674999999
12525.05 0.9687435862000000
12526.62 0.9683968250000000
12528.19 0.9679491750000000
12529.76 0.9673892039000000
12531.33 0.9666848461999999
12532.90 0.9658576059000000
12534.47 0.9649095653999999
12536.04 0.9638702412000000
12537.61 0.9627435237000000
12539.18 0.9615779188000000
12540.76 0.9603803782000000
12542.33 0.9591634849000000
12543.90 0.9579579117000000
12545.48 0.9567823814000000
12547.05 0.9556681661999999
12548.63 0.9546250697000001
12550.20 0.9536826630000000
12551.78 0.9528419199000000
12553.35 0.9520858651000000
12554.93 0.9514126330000000
12556.50 0.9508015718000000
12558.08 0.9502434007000000
12559.66 0.9497302434000000
12561.24 0.9492337427000000
12562.81 0.9487295926000000
12564.39 0.9482064332000000
12565.97 0.9476403664000000
12567.55 0.9469990274000000
12569.13 0.9462914684000000
12570.71 0.9454944195000000
12572.29 0.9446066719000000
12573.87 0.9436128478000000
12575.45 0.9425518977000000
12577.03 0.9414174792000000
12578.62 0.9402487186000000
12580.20 0.9390646240000000
12581.78 0.9378708497000000
12583.36 0.9366822422000000
12584.95 0.9355188067000000
12586.53 0.9343951648000000
12588.12 0.9333413578999999
12589.70 0.9323583545000000
12591.29 0.9314387540000000
12592.87 0.9305729568000000
12594.46 0.9297737646999999
12596.04 0.9290184003000000
12597.63 0.9283083573000001
12599.22 0.9276292423000000
12600.81 0.9269654954000000
12602.39 0.9262875143000000
12603.98 0.9255636456000000
12605.57 0.9247808003000000
12607.16 0.9239025254000000
12608.75 0.9229329586000000
12610.34 0.9218513160000000
12611.93 0.9206710113000000
12613.52 0.9193741462000000
12615.11 0.9179983671000000
12616.70 0.9166145118000000
12618.30 0.9153755536000000
12619.89 0.9134316872000000
12621.48 0.9116952019000000
12623.07 0.9099060109000000
12624.67 0.9080255348000000
12626.26 0.9060919431000000
12627.86 0.9041067216999999
12629.45 0.9027405737999999
12631.05 0.9015017643000000
12632.64 0.9002438708000000
12634.24 0.8989607070000000
12635.84 0.8976770148000000
12637.43 0.8963630610000000
12639.03 0.8950206418000000
12640.63 0.8936473309000000
12642.23 0.8922353549000001
12643.82 0.8907778545000000
12645.42 0.8891921543000000
12647.02 0.8875323210000000
12648.62 0.8858814707000000
12650.22 0.8842554731000000
12651.82 0.8826422623000000
12653.42 0.8810354886000000
12655.02 0.8794506779000000
12656.63 0.8778849446000000
12658.23 0.8758701308000000
12659.83 0.8737137046000000
12661.43 0.8715891536000000
12663.04 0.8694712027000000
12664.64 0.8673765780000000
12666.24 0.8653788241000000
12667.85 0.8634737045999999
12669.45 0.8616032499000000
12671.06 0.8597735233000000
12672.67 0.8579843710000000
12674.27 0.8564200902000000
12675.88 0.8553689323000000
12677.48 0.8542930800000000
12679.09 0.8532007867000000
12680.70 0.8520824719000000
12682.31 0.8509580648000000
12683.92 0.8498292557000000
12685.53 0.8486937205000000
12687.14 0.8475296072000000
12688.75 0.8459449131000000
12690.36 0.8443236313000000
12691.97 0.8426632913000000
12693.58 0.8409461183000000
12695.19 0.8391764009000000
12696.80 0.8373628315000000
12698.41 0.8354325167000000
12700.03 0.8334719894000000
12701.64 0.8314660790000000
12703.25 0.8294026414000000
12704.87 0.8273186085000001
12706.48 0.8252771001000000
12708.10 0.8232459509000000
12709.71 0.8212109520999999
12711.33 0.8191780775000000
12712.94 0.8171421397000000
12714.56 0.8150880895000000
12716.17 0.8133176599000000
12717.79 0.8116439907000000
12719.41 0.8099980039000000
12721.03 0.8083776712000000
12722.65 0.8067753200000000
12724.27 0.8051818444000000
12725.88 0.8035553528000000
12727.50 0.8017299252000000
12729.12 0.7998002831000000
12730.74 0.7978580722000000
12732.37 0.7959074154000000
12733.99 0.7939585560000000
12735.61 0.7917472874000000
12737.23 0.7892359041000000
12738.85 0.7866682471000001
12740.48 0.7840934312000000
12742.10 0.7814472019000001
12743.72 0.7786485045000000
12745.35 0.7758263811000000
12746.97 0.7729762926000000
12748.60 0.7700659027000000
12750.22 0.7671009312000000
12751.85 0.7641013912000000
12753.48 0.7611728271000000
12755.10 0.7583901936000000
12756.73 0.7556143107000000
12758.36 0.7528206151000000
12759.98 0.7500957682000000
12761.61 0.7474393260000000
12763.24 0.7447867734000000
12764.87 0.7421145465000000
12766.50 0.7393590990000000
12768.13 0.7363465950000000
12769.76 0.7333292045000001
12771.39 0.7302877341000000
12773.02 0.7270382511000000
12774.66 0.7235748379000000
12776.29 0.7201034512000000
12777.92 0.7163077885000000
12779.55 0.7120922678000000
12781.19 0.7078274520000000
12782.82 0.7027747284000000
12784.45 0.6976265818000000
12786.09 0.6924107672000001
12787.72 0.6871878727000000
12789.36 0.6819278134000000
12791.00 0.6767195792000000
12792.63 0.6715758900000000
12794.27 0.6665471074000000
12795.91 0.6618389603000000
12797.54 0.6571930048000000
12799.18 0.6526975753000001
12800.82 0.6482616530000000
12802.46 0.6435739158000000
12804.10 0.6388397434000000
12805.74 0.6335541456000000
12807.38 0.6279770833000000
12809.02 0.6215049556000000
12810.66 0.6146788729000000
12812.30 0.6076637014000000
12813.94 0.6009304045000000
12815.58 0.5943590828999999
12817.23 0.5879225810000001
12818.87 0.5816909820000000
12820.51 0.5757288300000000
12822.16 0.5699969475000000
12823.80 0.5644732523000000
12825.45 0.5590281928000000
12827.09 0.5535678431000000
12828.74 0.5480890342000000
12830.38 0.5424913269000000
12832.03 0.5367123868000000
12833.68 0.5308130564000000
12835.32 0.5248485767000000
12836.97 0.5189452192000000
12838.62 0.5132555339000000
12840.27 0.5077696428000000
12841.92 0.5024553698999999
12843.57 0.4973235482000000
12845.22 0.4922965684000000
12846.87 0.4874129738000000
12848.52 0.4826089317000000
12850.17 0.4779061343000000
12851.82 0.4732748421000000
12853.47 0.4686930459000000
12855.12 0.4641410327000000
12856.78 0.4595762062000000
12858.43 0.4550007494000000
12860.08 0.4504233963000000
12861.74 0.4457723729000000
12863.39 0.4410980987000000
12865.05 0.4362960037000000
12866.70 0.4314973171000000
12868.36 0.4266410055000000
12870.01 0.4217798147000000
12871.67 0.4169697309000000
12873.33 0.4121476622000000
12874.98 0.4074217802000000
12876.64 0.4026786837000000
12878.30 0.3980747675000000
12879.96 0.3934807109000000
12881.62 0.3889825297000000
12883.28 0.3845087718000000
12884.94 0.3801033250000000
12886.60 0.3757626372000000
12888.26 0.3714536267000000
12889.92 0.3671988342000000
12891.58 0.3629748194000000
12893.24 0.3587967282000000
12894.91 0.3546610346000000
12896.57 0.3505230931000000
12898.23 0.3464365467000000
12899.90 0.3423049206000000
12901.56 0.3382121676000000
12903.23 0.3340703315000000
12904.89 0.3299392615000000
12906.56 0.3257583890000000
12908.22 0.3215686540000000
12909.89 0.3173179439000000
12911.56 0.3130801207000000
12913.22 0.3087966384000000
12914.89 0.3045186783000000
12916.56 0.3002138754000000
12918.23 0.2959150885000000
12919.90 0.2916160423000000
12921.57 0.2873410263000000
12923.24 0.2830633703000000
12924.91 0.2788209796000000
12926.58 0.2745938377000000
12928.25 0.2704116050000000
12929.92 0.2662620202000000
12931.59 0.2621299728000000
12933.26 0.2580421888000000
12934.94 0.2539537923000000
12936.61 0.2499555404000000
12938.28 0.2459451022000000
12939.96 0.2420030670000000
12941.63 0.2380640368000000
12943.31 0.2341823949000000
12944.98 0.2303605341000000
12946.66 0.2265618137000000
12948.34 0.2228215401000000
12950.01 0.2190762094000000
12951.69 0.2153957163000000
12953.37 0.2117417968000000
12955.05 0.2081476243000000
12956.72 0.2045668864000000
12958.40 0.2010041865000000
12960.08 0.1974811752000000
12961.76 0.1939825510000000
12963.44 0.1905274915000000
12965.12 0.1870907822000000
12966.80 0.1836965068000000
12968.49 0.1803175776000000
12970.17 0.1769781748000000
12971.85 0.1736780412000000
12973.53 0.1704166596000000
12975.22 0.1671974634000000
12976.90 0.1640214391000000
12978.59 0.1608972771000000
12980.27 0.1577945341000000
12981.96 0.1547569295000000
12983.64 0.1517696394000000
12985.33 0.1488178434000000
12987.01 0.1459279405000000
12988.70 0.1430973469000000
12990.39 0.1403071173000000
12992.07 0.1375478106000000
12993.76 0.1348692468000000
12995.45 0.1322300522000000
12997.14 0.1296160197000000
12998.83 0.1270519348000000
13000.52 0.1245339336000000
13002.21 0.1220501057000000
13003.90 0.1195961680000000
13005.59 0.1171696479000000
13007.28 0.1147844082000000
13008.98 0.1124260924000000
13010.67 0.1101102136000000
13012.36 0.1078289149000000
13014.06 0.1055713942000000
13015.75 0.1033564571000000
13017.44 0.1011808482000000
13019.14 0.0990489849400000
13020.83 0.0969608425300000
13022.53 0.0949163577300000
13024.23 0.0929136568800000
13025.92 0.0909474025800000
13027.62 0.0890223826100000
13029.32 0.0871472703500000
13031.01 0.0853394710100000
13032.71 0.0835714220600000
13034.41 0.0818336774700000
13036.11 0.0801286541000000
13037.81 0.0784533045600000
13039.51 0.0768436703300000
13041.21 0.0752861039300000
13042.91 0.0737535621100000
13044.61 0.0722471688500000
13046.31 0.0707668739500000
13048.02 0.0693112068200000
13049.72 0.0678814887900000
13051.42 0.0664771469600000
13053.13 0.0650971697400000
13054.83 0.0637438571500000
13056.53 0.0624147665400000
13058.24 0.0611105699300000
13059.95 0.0598317840900000
13061.65 0.0585777261800000
13063.36 0.0573482858200000
13065.06 0.0561446997200000
13066.77 0.0549658973500000
13068.48 0.0538116076700000
13070.19 0.0526828166500000
13071.90 0.0515753486300000
13073.60 0.0504951496700000
13075.31 0.0494388903500000
13077.02 0.0484051718700000
13078.73 0.0474311613000000
13080.44 0.0465016135000000
13082.16 0.0455899939300000
13083.87 0.0446980289100000
13085.58 0.0438248295500000
13087.29 0.0429688955000000
13089.01 0.0421302019400000
13090.72 0.0413061608800000
13092.43 0.0404993737300000
13094.15 0.0397091752500000
13095.86 0.0389341576900000
13097.58 0.0381766761200000
13099.29 0.0374349441200000
13101.01 0.0367082150600000
13102.73 0.0359968378100000
13104.44 0.0352979458100000
13106.16 0.0346138697400000
13107.88 0.0339452561800000
13109.60 0.0332892023900000
13111.32 0.0326471282600000
13113.03 0.0320156399200000
13114.75 0.0313979246300000
13116.47 0.0307937781400000
13118.19 0.0302004226700000
13119.92 0.0296192853500000
13121.64 0.0290500129000000
13123.36 0.0284896342800000
13125.08 0.0279591044800000
13126.80 0.0274633671700000
13128.53 0.0269750066800000
13130.25 0.0264936043400000
13131.98 0.0260185552900000
13133.70 0.0255489803000000
13135.43 0.0250860915000000
13137.15 0.0246303815600000
13138.88 0.0241806891100000
13140.60 0.0237365523400000
13142.33 0.0232988839000000
13144.06 0.0228676145000000
13145.79 0.0224422364400000
13147.52 0.0220237365200000
13149.24 0.0216116414900000
13150.97 0.0212060793700000
13152.70 0.0208077606800000
13154.43 0.0204155727600000
13156.16 0.0200308302900000
13157.89 0.0196531098100000
13159.63 0.0192831916100000
13161.36 0.0189207940000000
13163.09 0.0185655788000000
13164.82 0.0182268684200000
13166.56 0.0179162355000000
13168.29 0.0176125547000000
13170.03 0.0173153038500000
13171.76 0.0170227737500000
13173.49 0.0167366156500000
13175.23 0.0164566915300000
13176.97 0.0161813225200000
13178.70 0.0159111752700000
13180.44 0.0156485449400000
13182.18 0.0153903389100000
13183.92 0.0151374273200000
13185.65 0.0148912088600000
13187.39 0.0146491649000000
13189.13 0.0144118838700000
13190.87 0.0141804309800000
13192.61 0.0139526844200000
13194.35 0.0137294467300000
13196.09 0.0135106986800000
13197.84 0.0132953296800000
13199.58 0.0130834630200000
13201.32 0.0128749344900000
13203.06 0.0126692199100000
13204.81 0.0124659821500000
13206.55 0.0122650430400000
13208.29 0.0120662868200000
13210.04 0.0118688645800000
13211.78 0.0116733584800000
13213.53 0.0114796115200000
13215.28 0.0112867879900000
13217.02 0.0110962479800000
13218.77 0.0109074687300000
13220.52 0.0107193929000000
13222.27 0.0105342259300000
13224.01 0.0103510031000000
13225.76 0.0101699194600000
13227.51 0.0099914679420000
13229.26 0.0098162253800000
13231.01 0.0096443859610000
13232.76 0.0094759443620000
13234.52 0.0093122272890000
13236.27 0.0091519167290000
13238.02 0.0089952460550000
13239.77 0.0088462940760000
13241.53 0.0087004086410000
13243.28 0.0085535415520000
13245.03 0.0084103759980000
13246.79 0.0082716119410000
13248.54 0.0081426965270000
13250.30 0.0080181865660000
13252.05 0.0079003086810000
13253.81 0.0077893235240000
13255.57 0.0076816666220000
13257.32 0.0075807691200000
13259.08 0.0074827428790000
13260.84 0.0073880629300000
13262.60 0.0072967849760000
13264.36 0.0072069625450000
13266.12 0.0071185850380000
13267.88 0.0070312835790000
13269.64 0.0069433541610000
13271.40 0.0068549609490000
13273.16 0.0067667728230000
13274.92 0.0066752231540000
13276.69 0.0065839694470000
13278.45 0.0064900375010000
13280.21 0.0063940258020000
13281.98 0.0062979634140000
13283.74 0.0061980758430000
13285.51 0.0060986011200000
13287.27 0.0059974353690000
13289.04 0.0058955118110000
13290.80 0.0057944493580000
13292.57 0.0056927866790000
13294.34 0.0055925120120000
13296.10 0.0054937706130000
13297.87 0.0053965682550000
13299.64 0.0053015175580000
13301.41 0.0052102057020000
13303.18 0.0051210017000000
13304.95 0.0050361229950000
13306.72 0.0049545934720000
13308.49 0.0048764333100000
13310.26 0.0048035183900000
13312.03 0.0047327666640000
13313.81 0.0046671224420000
13315.58 0.0046043828810000
13317.35 0.0045442731140000
13319.13 0.0044880161940000
13320.90 0.0044332940070000
13322.68 0.0043812383010000
13324.45 0.0043306625730000
13326.23 0.0042803976970000
13328.00 0.0042307069210000
13329.78 0.0041812726620000
13331.56 0.0041306203130000
13333.33 0.0040796332560000
13335.11 0.0040276567390000
13336.89 0.0039734300790000
13338.67 0.0039188976750000
13340.45 0.0038618019820000
13342.23 0.0038040038090000
13344.01 0.0037454454600000
13345.79 0.0036849838090000
13347.57 0.0036250479510000
13349.35 0.0035646676550000
13351.13 0.0035046118110000
13352.92 0.0034459372010000
13354.70 0.0033887811960000
13356.48 0.0033329403860000
13358.27 0.0032808015950000
13360.05 0.0032305552200000
13361.84 0.0031838175490000
13363.62 0.0031412386130000
13365.41 0.0031005792260000
13367.20 0.0030655714440000
13368.98 0.0030327922300000
13370.77 0.0030037868210000
13372.56 0.0029788440950000
13374.35 0.0029548924810000
13376.14 0.0029352168070000
13377.93 0.0029168257830000
13379.72 0.0028997293360000
13381.51 0.0028843129190000
13383.30 0.0028690123000000
13385.09 0.0028538467040000
13386.88 0.0028387654950000
13388.67 0.0028227995910000
13390.47 0.0028060657880000
13392.26 0.0027887091630000
13394.05 0.0027694621430000
13395.85 0.0027498047470000
13397.64 0.0027286129180000
13399.44 0.0027062642610000
13401.23 0.0026838750470000
13403.03 0.0026599822670000
13404.83 0.0026361209500000
13406.62 0.0026117340870000
13408.42 0.0025869780970000
13410.22 0.0025624145340000
13412.02 0.0025378456640000
13413.82 0.0025134277610000
13415.62 0.0024890907740000
13417.42 0.0024649399850000
13419.22 0.0024406204450000
13421.02 0.0024160780090000
13422.82 0.0023917000740000
13424.62 0.0023664424720000
13426.42 0.0023406822750000
13428.23 0.0023145537470000
13430.03 0.0022869791990000
13431.83 0.0022593883800000
13433.64 0.0022303850920000
13435.44 0.0022008471200000
13437.25 0.0021711563800000
13439.05 0.0021405671610000
13440.86 0.0021101884200000
13442.67 0.0020802144240000
13444.47 0.0020505666060000
13446.28 0.0020219655610000
13448.09 0.0019951455820000
13449.90 0.0019690371440000
13451.71 0.0019458536650000
13453.52 0.0019242720370000
13455.33 0.0019048456620000
13457.14 0.0018889117550000
13458.95 0.0018737132340000
13460.76 0.0018624961410000
13462.57 0.0018528431890000
13464.39 0.0018446398590000
13466.20 0.0018388997330000
13468.01 0.0018337221560000
13469.83 0.0018297062550000
13471.64 0.0018262018050000
13473.46 0.0018225260910000
13475.27 0.0018185961660000
13477.09 0.0018144324130000
13478.91 0.0018086854350000
13480.72 0.0018024873910000
13482.54 0.0017950561190000
13484.36 0.0017858934940000
13486.18 0.0017764956340000
13488.00 0.0017651152740000
13489.82 0.0017532600990000
13491.64 0.0017409667920000
13493.46 0.0017280054300000
13495.28 0.0017152702530000
13497.10 0.0017030383370000
13498.92 0.0016908678320000
13500.74 0.0016799428820000
13502.57 0.0016702312410000
13504.39 0.0016611344940000
13506.21 0.0016542290200000
13508.04 0.0016479980170000
13509.86 0.0016431381540000
13511.69 0.0016397028610000
13513.51 0.0016365799680000
13515.34 0.0016346322630000
13517.17 0.0016329607940000
13518.99 0.0016309296770000
13520.82 0.0016286999320000
13522.65 0.0016259530490000
13524.48 0.0016214475470000
13526.31 0.0016163937890000
13528.14 0.0016088847690000
13529.97 0.0015993551840000
13531.80 0.0015885998130000
13533.63 0.0015737903620000
13535.46 0.0015582720010000
13537.30 0.0015394391710000
13539.13 0.0015181093710000
13540.96 0.0014958833350000
13542.80 0.0014699656590000
13544.63 0.0014438063590000
13546.46 0.0014155368020000
13548.30 0.0013860880690000
13550.14 0.0013567107770000
13551.97 0.0013262311060000
13553.81 0.0012961362050000
13555.65 0.0012665685890000
13557.48 0.0012375191310000
13559.32 0.0012096264870000
13561.16 0.0011835272620000
13563.00 0.0011582094590000
13564.84 0.0011358022850000
13566.68 0.0011149837070000
13568.52 0.0010959378390000
13570.36 0.0010805473380000
13572.20 0.0010660918920000
13574.05 0.0010549748320000
13575.89 0.0010459223070000
13577.73 0.0010386363390000
13579.58 0.0010345280290000
13581.42 0.0010310995390000
13583.27 0.0010304303410000
13585.11 0.0010310795650000
13586.96 0.0010326097350000
13588.80 0.0010358766740000
13590.65 0.0010394377100000
13592.50 0.0010437575820000
13594.34 0.0010484590990000
13596.19 0.0010530172430000
13598.04 0.0010575026260000
13599.89 0.0010618958510000
13601.74 0.0010653061240000
13603.59 0.0010683699180000
13605.44 0.0010707301910000
13607.29 0.0010720168170000
13609.15 0.0010728674150000
13611.00 0.0010725790220000
13612.85 0.0010716938340000
13614.70 0.0010701082380000
13616.56 0.0010675632200000
13618.41 0.0010648313460000
13620.27 0.0010611988000000
13622.12 0.0010572004480000
13623.98 0.0010527610560000
13625.83 0.0010477136370000
13627.69 0.0010425940370000
13629.55 0.0010367108670000
13631.41 0.0010306445130000
13633.27 0.0010239894800000
13635.12 0.0010167129680000
13636.98 0.0010092020820000
13638.84 0.0010005741480000
13640.70 0.0009916798240000
