# Provided by ESA in 10/2012
# Important Notes:
# The data contained here correspond to the SLSTR Spectral Model CDR derived in 2011.
9725    0.0001
9735    0.0001
9745    0.0001
9755    0.0001
9765    0.0001
9775    0.0001
9785    0.0001
9795    0.0001
9805    0.0001
9815    0.0002
9825    0.0002
9835    0.0002
9845    0.0002
9855    0.0003
9865    0.0003
9875    0.0004
9885    0.0004
9895    0.0005
9905    0.0005
9915    0.0006
9925    0.0007
9935    0.0008
9945    0.0010
9955    0.0011
9965    0.0013
9975    0.0015
9985    0.0017
9995    0.0020
10005   0.0023
10015   0.0027
10025   0.0032
10035   0.0037
10045   0.0043
10055   0.0051
10065   0.0060
10075   0.0071
10085   0.0083
10095   0.0099
10105   0.0118
10115   0.0137
10125   0.0161
10135   0.0191
10145   0.0225
10155   0.0264
10165   0.0308
10175   0.0365
10185   0.0431
10195   0.0503
10205   0.0587
10215   0.0687
10225   0.0796
10235   0.0921
10245   0.1072
10255   0.1229
10265   0.1422
10275   0.1620
10285   0.1835
10295   0.2075
10305   0.2319
10315   0.2584
10325   0.2838
10335   0.3172
10345   0.3511
10355   0.3815
10365   0.4158
10375   0.4483
10385   0.4802
10395   0.5083
10405   0.5428
10415   0.5763
10425   0.5986
10435   0.6237
10445   0.6523
10455   0.6830
10465   0.7162
10475   0.7356
10485   0.7432
10495   0.7768
10505   0.8007
10515   0.8005
10525   0.8101
10535   0.8243
10545   0.8382
10555   0.8487
10565   0.8612
10575   0.8758
10585   0.8842
10595   0.8895
10605   0.8868
10615   0.8915
10625   0.8983
10635   0.9061
10645   0.9131
10655   0.9013
10665   0.9065
10675   0.9189
10685   0.9206
10695   0.9229
10705   0.9245
10715   0.9208
10725   0.9213
10735   0.9298
10745   0.9290
10755   0.9173
10765   0.9195
10775   0.9448
10785   0.9501
10795   0.9414
10805   0.9417
10815   0.9311
10825   0.9349
10835   0.9478
10845   0.9459
10855   0.9513
10865   0.9592
10875   0.9640
10885   0.9701
10895   0.9572
10905   0.9629
10915   0.9819
10925   0.9774
10935   0.9741
10945   0.9802
10955   1.0000
10965   0.9791
10975   0.9459
10985   0.9755
10995   0.9753
11005   0.9454
11015   0.9426
11025   0.9407
11035   0.9315
11045   0.9194
11055   0.9145
11065   0.8968
11075   0.8697
11085   0.8530
11095   0.8330
11105   0.8060
11115   0.7791
11125   0.7433
11135   0.7058
11145   0.6731
11155   0.6362
11165   0.5987
11175   0.5591
11185   0.5206
11195   0.4842
11205   0.4500
11215   0.4121
11225   0.3727
11235   0.3395
11245   0.3075
11255   0.2777
11265   0.2498
11275   0.2230
11285   0.1981
11295   0.1758
11305   0.1554
11315   0.1367
11325   0.1198
11335   0.1051
11345   0.0923
11355   0.0808
11365   0.0696
11375   0.0605
11385   0.0528
11395   0.0455
11405   0.0399
11415   0.0348
11425   0.0301
11435   0.0261
11445   0.0227
11455   0.0197
11465   0.0171
11475   0.0149
11485   0.0130
11495   0.0114
11505   0.0100
11515   0.0088
11525   0.0077
11535   0.0068
11545   0.0059
11555   0.0052
11565   0.0046
11575   0.0041
11585   0.0036
11595   0.0032
11605   0.0028
11615   0.0025
11625   0.0022
11635   0.0020
11645   0.0017
11655   0.0015
11665   0.0014
11675   0.0012
11685   0.0011
11695   0.0010
11705   0.0009
11715   0.0008
11725   0.0007
11735   0.0007
11745   0.0006
11755   0.0005
11765   0.0005
11775   0.0004
11785   0.0004
11795   0.0004
11805   0.0003
11815   0.0003
11825   0.0003
11835   0.0003
11845   0.0002
11855   0.0002
11865   0.0002
11875   0.0002
11885   0.0002
11895   0.0001
11905   0.0001
11915   0.0001
11925   0.0001
11935   0.0001
11945   0.0001
11955   0.0001
11965   0.0001
11975   0.0001
11985   0.0001
11995   0.0001
