# K. Yoshino, W.H. Parkinson, K. Ito, and T. Matsui, "Absolute
# absorption cross-section measurements of Schumann-Runge continuum 
# of O2 at 90 and 295 K," J. Mol. Spectrosc. 229, 238-243 (2005).  
#
# data from http://www.atmosphere.mpg.de/enid/...
#
#               295K          95K
#
130.04    4.3338e-19    4.110e-19
130.09    4.3555e-19	4.090e-19
130.14    4.1974e-19	4.092e-19
130.19    4.0679e-19	4.047e-19
130.24    3.9383e-19	4.002e-19
130.29    3.8831e-19	3.975e-19
130.34    3.8075e-19	3.858e-19
130.39    3.7251e-19	3.765e-19
130.44    3.6884e-19	3.648e-19
130.49    3.5989e-19	3.592e-19
130.54    3.5364e-19	3.522e-19
130.59    3.5021e-19	3.553e-19
130.64    3.4786e-19	3.506e-19
130.69    3.4482e-19	3.459e-19
130.74    3.4866e-19	3.483e-19
130.79    3.5372e-19	3.476e-19
130.84    3.5725e-19	3.473e-19
130.89    3.6338e-19	3.582e-19
130.94    3.7229e-19	3.756e-19
130.99    3.8416e-19	3.876e-19
131.04    3.9769e-19	4.017e-19
131.09    4.1474e-19	4.203e-19
131.14    4.3843e-19	4.435e-19
131.19    4.6222e-19	4.648e-19
131.24    4.8847e-19	4.896e-19
131.29    5.1943e-19	5.238e-19
131.34    5.5580e-19	5.544e-19
131.39    5.9132e-19	5.837e-19
131.44    6.3022e-19	6.110e-19
131.49    6.6888e-19	6.501e-19
131.54    7.1466e-19	6.924e-19
131.59    7.4690e-19	7.427e-19
131.64    8.1071e-19	7.857e-19
131.69    8.5843e-19	8.476e-19
131.74    9.0914e-19	8.935e-19
131.79    9.5929e-19	9.404e-19
131.84    1.0182e-18	9.959e-19
131.89    1.0683e-18	1.048e-18
131.94    1.1437e-18	1.086e-18
131.99    1.2123e-18	1.143e-18
132.04    1.2667e-18	1.199e-18
132.09    1.2917e-18	1.251e-18
132.14    1.3339e-18	1.321e-18
132.19    1.3871e-18	1.386e-18
132.24    1.4253e-18	1.449e-18
132.29    1.4778e-18	1.497e-18
132.34    1.5671e-18	1.542e-18
132.39    1.6375e-18	1.587e-18
132.44    1.6695e-18	1.639e-18
132.49    1.7212e-18	1.685e-18
132.54    1.7818e-18	1.755e-18
132.59    1.8139e-18	1.810e-18
132.64    1.8587e-18	1.859e-18
132.69    1.9007e-18	1.899e-18
132.74    1.9458e-18	1.956e-18
132.79    1.9857e-18	1.983e-18
132.84    2.0232e-18	2.041e-18
132.89    2.0811e-18	2.096e-18
132.94    2.1304e-18	2.154e-18
132.99    2.1643e-18	2.178e-18
133.04    2.1927e-18	2.226e-18
133.09    2.2130e-18	2.222e-18
133.14    2.2213e-18	2.248e-18
133.19    2.2260e-18	2.243e-18
133.24    2.2466e-18	2.251e-18
133.29    2.2362e-18	2.247e-18
133.34    2.2651e-18	2.275e-18
133.39    2.2369e-18	2.270e-18
133.44    2.2450e-18	2.268e-18
133.49    2.2299e-18	2.277e-18
133.54    2.2304e-18	2.271e-18
133.59    2.1890e-18	2.266e-18
133.64    2.1961e-18	2.248e-18
133.69    2.1974e-18	2.255e-18
133.74    2.1682e-18	2.246e-18
133.79    2.1647e-18	2.233e-18
133.84    2.1711e-18	2.209e-18
133.89    2.1617e-18	2.189e-18
133.94    2.1416e-18	2.182e-18
133.99    2.1685e-18	2.173e-18
134.04    2.1259e-18	2.175e-18
134.09    2.1327e-18	2.184e-18
134.14    2.1375e-18	2.202e-18
134.19    2.1827e-18	2.235e-18
134.24    2.2290e-18	2.266e-18
134.29    2.3239e-18	2.311e-18
134.34    2.4013e-18	2.380e-18
134.39    2.5264e-18	2.465e-18
134.44    2.6112e-18	2.558e-18
134.49    2.7552e-18	2.686e-18
134.54    2.9314e-18	2.847e-18
134.59    3.1946e-18	3.014e-18
134.64    3.4271e-18	3.200e-18
134.69    3.7409e-18	3.424e-18
134.74    4.0584e-18	3.700e-18
134.79    4.3797e-18	3.964e-18
134.84    4.7066e-18	4.303e-18
134.89    5.0065e-18	4.647e-18
134.94    5.3302e-18	4.996e-18
134.99    5.6066e-18	5.324e-18
135.04    5.9463e-18	5.690e-18
135.09    6.2692e-18	5.991e-18
135.14    6.5655e-18	6.240e-18
135.19    6.7650e-18	6.453e-18
135.24    6.9524e-18	6.653e-18
135.29    7.0296e-18	6.788e-18
135.34    7.1365e-18	6.876e-18
135.39    7.2096e-18	6.966e-18
135.44    7.2260e-18	6.983e-18
135.49    7.1883e-18	6.966e-18
135.54    7.2380e-18	6.927e-18
135.59    7.2424e-18	6.890e-18
135.64    7.1755e-18	6.873e-18
135.69    7.1606e-18	6.863e-18
135.74    7.2026e-18	6.836e-18
135.79    7.2156e-18	6.795e-18
135.84    7.2254e-18	6.804e-18
135.89    7.2877e-18	6.857e-18
135.94    7.3463e-18	6.911e-18
135.99    7.4896e-18	7.040e-18
136.04    7.6454e-18	7.273e-18
136.09    7.7611e-18	7.427e-18
136.14    7.9827e-18	7.593e-18
136.19    8.1625e-18	7.769e-18
136.24    8.3197e-18	7.929e-18
136.29    8.5271e-18	8.089e-18
136.34    8.8447e-18	8.391e-18
136.39    9.0896e-18	8.676e-18
136.44    9.3975e-18	8.944e-18
136.49    9.6951e-18	9.220e-18
136.54    9.9855e-18	9.469e-18
136.59    1.0174e-17	9.696e-18
136.64    1.0446e-17	9.967e-18
136.69    1.0729e-17	1.023e-17
136.74    1.0926e-17	1.043e-17
136.79    1.1140e-17	1.063e-17
136.84    1.1373e-17	1.081e-17
136.89    1.1493e-17	1.096e-17
136.94    1.1607e-17	1.112e-17
136.99    1.1842e-17	1.127e-17
137.04    1.1941e-17	1.142e-17
137.09    1.2098e-17	1.155e-17
137.14    1.2217e-17	1.169e-17
137.19    1.2345e-17	1.182e-17
137.24    1.2436e-17	1.194e-17
137.29    1.2527e-17	1.206e-17
137.34    1.2647e-17	1.217e-17
137.39    1.2735e-17	1.226e-17
137.44    1.2863e-17	1.234e-17
137.49    1.2932e-17	1.240e-17
137.54    1.3010e-17	1.246e-17
137.59    1.3083e-17	1.253e-17
137.64    1.3209e-17	1.259e-17
137.69    1.3281e-17	1.266e-17
137.74    1.3363e-17	1.272e-17
137.79    1.3435e-17	1.279e-17
137.84    1.3496e-17	1.283e-17
137.89    1.3548e-17	1.288e-17
137.94    1.3615e-17	1.293e-17
137.99    1.3673e-17	1.298e-17
138.04    1.3712e-17	1.301e-17
138.09    1.3752e-17	1.305e-17
138.14    1.3787e-17	1.307e-17
138.19    1.3825e-17	1.309e-17
138.24    1.3864e-17	1.313e-17
138.29    1.3884e-17	1.316e-17
138.34    1.3891e-17	1.321e-17
138.39    1.3906e-17	1.326e-17
138.44    1.3905e-17	1.329e-17
138.49    1.3928e-17	1.332e-17
138.54    1.3950e-17	1.335e-17
138.59    1.3987e-17	1.339e-17
138.64    1.4018e-17	1.342e-17
138.69    1.4059e-17	1.344e-17
138.74    1.4092e-17	1.347e-17
138.79    1.4133e-17	1.348e-17
138.84    1.4152e-17	1.348e-17
138.89    1.4183e-17	1.349e-17
138.94    1.4204e-17	1.352e-17
138.99    1.4220e-17	1.352e-17
139.04    1.4223e-17	1.353e-17
139.09    1.4234e-17	1.352e-17
139.14    1.4237e-17	1.354e-17
139.19    1.4236e-17	1.356e-17
139.24    1.4235e-17	1.358e-17
139.29    1.4226e-17	1.361e-17
139.34    1.4218e-17	1.362e-17
139.39    1.4198e-17	1.363e-17
139.44    1.4185e-17	1.364e-17
139.49    1.4176e-17	1.365e-17
139.54    1.4182e-17	1.366e-17
139.59    1.4183e-17	1.364e-17
139.64    1.4195e-17	1.363e-17
139.69    1.4209e-17	1.360e-17
139.74    1.4230e-17	1.358e-17
139.79    1.4251e-17	1.356e-17
139.84    1.4288e-17	1.355e-17
139.89    1.4325e-17	1.354e-17
139.94    1.4359e-17	1.353e-17
139.99    1.4381e-17	1.353e-17
140.04    1.4400e-17	1.354e-17
140.09    1.4409e-17	1.354e-17
140.14    1.4417e-17	1.355e-17
140.19    1.4425e-17	1.356e-17
140.24    1.4427e-17	1.358e-17
140.29    1.4416e-17	1.359e-17
140.34    1.4402e-17	1.360e-17
140.39    1.4385e-17	1.362e-17
140.44    1.4368e-17	1.363e-17
140.49    1.4353e-17	1.365e-17
140.54    1.4345e-17	1.367e-17
140.59    1.4347e-17	1.368e-17
140.64    1.4353e-17	1.369e-17
140.69    1.4357e-17	1.369e-17
140.74    1.4369e-17	1.369e-17
140.79    1.4389e-17	1.369e-17
140.84    1.4401e-17	1.368e-17
140.89    1.4405e-17	1.367e-17
140.94    1.4413e-17	1.366e-17
140.99    1.4421e-17	1.365e-17
141.04    1.4414e-17	1.364e-17
141.09    1.4402e-17	1.364e-17
141.14    1.4399e-17	1.365e-17
141.19    1.4389e-17	1.367e-17
141.24    1.4369e-17	1.368e-17
141.29    1.4357e-17	1.370e-17
141.34    1.4349e-17	1.371e-17
141.39    1.4345e-17	1.371e-17
141.44    1.4338e-17	1.371e-17
141.49    1.4333e-17	1.371e-17
141.54    1.4337e-17	1.369e-17
141.59    1.4343e-17	1.368e-17
141.64    1.4331e-17	1.366e-17
141.69    1.4327e-17	1.365e-17
141.74    1.4340e-17	1.364e-17
141.79    1.4355e-17	1.364e-17
141.84    1.4368e-17	1.364e-17
141.89    1.4397e-17	1.365e-17
141.94    1.4429e-17	1.366e-17
141.99    1.4443e-17	1.367e-17
142.04    1.4448e-17	1.368e-17
142.09    1.4471e-17	1.368e-17
142.14    1.4477e-17	1.368e-17
142.19    1.4473e-17	1.367e-17
142.24    1.4477e-17	1.366e-17
142.29    1.4473e-17	1.365e-17
142.34    1.4455e-17	1.364e-17
142.39    1.4442e-17	1.363e-17
142.44    1.4433e-17	1.363e-17
142.49    1.4415e-17	1.363e-17
142.54    1.4395e-17	1.362e-17
142.59    1.4380e-17	1.362e-17
142.64    1.4360e-17	1.362e-17
142.69    1.4329e-17	1.361e-17
142.74    1.4303e-17	1.360e-17
142.79    1.4280e-17	1.359e-17
142.84    1.4249e-17	1.358e-17
142.89    1.4219e-17	1.356e-17
142.94    1.4205e-17	1.356e-17
142.99    1.4198e-17	1.355e-17
143.04    1.4197e-17	1.355e-17
143.09    1.4202e-17	1.355e-17
143.14    1.4218e-17	1.356e-17
143.19    1.4225e-17	1.357e-17
143.24    1.4221e-17	1.358e-17
143.29    1.4213e-17	1.359e-17
143.34    1.4209e-17	1.360e-17
143.39    1.4205e-17	1.360e-17
143.44    1.4200e-17	1.360e-17
143.49    1.4192e-17	1.359e-17
143.54    1.4185e-17	1.359e-17
143.59    1.4172e-17	1.358e-17
143.64    1.4158e-17	1.358e-17
143.69    1.4153e-17	1.357e-17
143.74    1.4162e-17	1.355e-17
143.79    1.4173e-17	1.354e-17
143.84    1.4182e-17	1.353e-17
143.89    1.4189e-17	1.352e-17
143.94    1.4199e-17	1.351e-17
143.99    1.4203e-17	1.349e-17
144.04    1.4198e-17	1.348e-17
144.09    1.4197e-17	1.346e-17
144.14    1.4187e-17	1.345e-17
144.19    1.4171e-17	1.343e-17
144.24    1.4159e-17	1.342e-17
144.29    1.4152e-17	1.340e-17
144.34    1.4148e-17	1.339e-17
144.39    1.4155e-17	1.337e-17
144.44    1.4154e-17	1.335e-17
144.49    1.4143e-17	1.333e-17
144.54    1.4139e-17	1.331e-17
144.59    1.4140e-17	1.330e-17
144.64    1.4128e-17	1.329e-17
144.69    1.4117e-17	1.328e-17
144.74    1.4108e-17	1.327e-17
144.79    1.4083e-17	1.327e-17
144.84    1.4038e-17	1.327e-17
144.89    1.4005e-17	1.328e-17
144.94    1.3975e-17	1.328e-17
144.99    1.3944e-17	1.327e-17
145.04    1.3930e-17	1.327e-17
145.09    1.3931e-17	1.325e-17
145.14    1.3919e-17	1.322e-17
145.19    1.3904e-17	1.318e-17
145.24    1.3893e-17	1.313e-17
145.29    1.3871e-17	1.309e-17
145.34    1.3840e-17	1.304e-17
145.39    1.3823e-17	1.299e-17
145.44    1.3804e-17	1.296e-17
145.49    1.3763e-17	1.293e-17
145.54    1.3729e-17	1.290e-17
145.59    1.3704e-17	1.288e-17
145.64    1.3678e-17	1.287e-17
145.69    1.3654e-17	1.285e-17
145.74    1.3650e-17	1.284e-17
145.79    1.3660e-17	1.283e-17
145.84    1.3666e-17	1.281e-17
145.89    1.3663e-17	1.280e-17
145.94    1.3677e-17	1.278e-17
145.99    1.3686e-17	1.277e-17
146.04    1.3677e-17	1.275e-17
146.09    1.3667e-17	1.273e-17
146.14    1.3663e-17	1.271e-17
146.19    1.3644e-17	1.269e-17
146.24    1.3611e-17	1.268e-17
146.29    1.3577e-17	1.266e-17
146.34    1.3544e-17	1.265e-17
146.39    1.3502e-17	1.264e-17
146.44    1.3464e-17	1.264e-17
146.49    1.3441e-17	1.263e-17
146.54    1.3422e-17	1.263e-17
146.59    1.3411e-17	1.262e-17
146.64    1.3414e-17	1.261e-17
146.69    1.3410e-17	1.260e-17
146.74    1.3403e-17	1.257e-17
146.79    1.3408e-17	1.255e-17
146.84    1.3405e-17	1.251e-17
146.89    1.3386e-17	1.248e-17
146.94    1.3375e-17	1.245e-17
146.99    1.3360e-17	1.242e-17
147.04    1.3318e-17	1.239e-17
147.09    1.3265e-17	1.238e-17
147.14    1.3226e-17	1.237e-17
147.19    1.3188e-17	1.236e-17
147.24    1.3154e-17	1.236e-17
147.29    1.3141e-17	1.235e-17
147.34    1.3147e-17	1.231e-17
147.39    1.3140e-17	1.233e-17
147.44    1.3126e-17	1.229e-17
147.49    1.3114e-17	1.226e-17
147.54    1.3090e-17	1.223e-17
147.59    1.3056e-17	1.220e-17
147.64    1.3023e-17	1.217e-17
147.69    1.2983e-17	1.214e-17
147.74    1.2938e-17	1.211e-17
147.79    1.2883e-17	1.209e-17
147.84    1.2841e-17	1.207e-17
147.89    1.2795e-17	1.205e-17
147.94    1.2758e-17	1.204e-17
147.99    1.2733e-17	1.203e-17
148.04    1.2722e-17	1.202e-17
148.09    1.2697e-17	1.200e-17
148.14    1.2691e-17	1.198e-17
148.19    1.2691e-17	1.195e-17
148.24    1.2694e-17	1.192e-17
148.29    1.2682e-17	1.188e-17
148.34    1.2679e-17	1.184e-17
148.39    1.2666e-17	1.180e-17
148.44    1.2647e-17	1.176e-17
148.49    1.2618e-17	1.171e-17
148.54    1.2604e-17	1.166e-17
148.59    1.2574e-17	1.161e-17
148.64    1.2532e-17	1.156e-17
148.69    1.2471e-17	1.151e-17
148.74    1.2414e-17	1.147e-17
148.79    1.2349e-17	1.142e-17
148.84    1.2290e-17	1.138e-17
148.89    1.2247e-17	1.134e-17
148.94    1.2227e-17	1.131e-17
148.99    1.2205e-17	1.128e-17
149.04    1.2181e-17	1.126e-17
149.09    1.2156e-17	1.124e-17
149.14    1.2132e-17	1.123e-17
149.19    1.2111e-17	1.122e-17
149.24    1.2093e-17	1.121e-17
149.29    1.2086e-17	1.120e-17
149.34    1.2076e-17	1.119e-17
149.39    1.2056e-17	1.118e-17
149.44    1.2031e-17	1.117e-17
149.49    1.1987e-17	1.115e-17
149.54    1.1934e-17	1.113e-17
149.59    1.1892e-17	1.110e-17
149.64    1.1858e-17	1.106e-17
149.69    1.1826e-17	1.102e-17
149.74    1.1809e-17	1.098e-17
149.79    1.1798e-17	1.093e-17
149.84    1.1767e-17	1.088e-17
149.89    1.1721e-17	1.083e-17
149.94    1.1675e-17	1.078e-17
149.99    1.1622e-17	1.073e-17
150.04    1.1561e-17	1.069e-17
150.09    1.1490e-17	1.065e-17
150.14    1.1414e-17	1.062e-17
150.19    1.1333e-17	1.060e-17
150.24    1.1245e-17	1.058e-17
150.29    1.1169e-17	1.055e-17
150.34    1.1123e-17	1.053e-17
150.39    1.1108e-17	1.050e-17
150.44    1.1110e-17	1.046e-17
150.49    1.1128e-17	1.043e-17
150.54    1.1150e-17	1.038e-17
150.59    1.1170e-17	1.033e-17
150.64    1.1167e-17	1.028e-17
150.69    1.1147e-17	1.023e-17
150.74    1.1125e-17	1.017e-17
150.79    1.1084e-17	1.012e-17
150.84    1.1032e-17	1.008e-17
150.89    1.0986e-17	1.005e-17
150.94    1.0937e-17	1.004e-17
150.99    1.0883e-17	1.003e-17
151.04    1.0839e-17	1.002e-17
151.09    1.0802e-17	1.002e-17
151.14    1.0771e-17	1.002e-17
151.19    1.0747e-17	1.002e-17
151.24    1.0726e-17	1.001e-17
151.29    1.0695e-17	9.994e-18
151.34    1.0666e-17	9.963e-18
151.39    1.0631e-17	9.922e-18
151.44    1.0600e-17	9.870e-18
151.49    1.0573e-17	9.813e-18
151.54    1.0559e-17	9.755e-18
151.59    1.0538e-17	9.697e-18
151.64    1.0505e-17	9.642e-18
151.69    1.0471e-17	9.594e-18
151.74    1.0436e-17	9.551e-18
151.79    1.0383e-17	9.511e-18
151.84    1.0328e-17	9.472e-18
151.89    1.0281e-17	9.434e-18
151.94    1.0220e-17	9.396e-18
151.99    1.0153e-17	9.357e-18
152.04    1.0102e-17	9.319e-18
152.09    1.0058e-17	9.282e-18
152.14    1.0020e-17	9.248e-18
152.19    9.9953e-18	9.215e-18
152.24    9.9749e-18	9.183e-18
152.29    9.9552e-18	9.153e-18
152.34    9.9147e-18	9.128e-18
152.39    9.8788e-18	9.103e-18
152.44    9.8301e-18	9.082e-18
152.49    9.7762e-18	9.062e-18
152.54    9.7146e-18	9.042e-18
152.59    9.6601e-18	9.018e-18
152.64    9.5848e-18	8.992e-18
152.69    9.5158e-18	8.965e-18
152.74    9.4383e-18	8.936e-18
152.79    9.3760e-18	8.905e-18
152.84    9.3160e-18	8.875e-18
152.89    9.2703e-18	8.840e-18
152.94    9.2267e-18	8.805e-18
152.99    9.1941e-18	8.768e-18
153.04    9.1462e-18	8.732e-18
153.09    9.1088e-18	8.698e-18
153.14    9.0743e-18	8.668e-18
153.19    9.0474e-18	8.640e-18
153.24    9.0125e-18	8.613e-18
153.29    8.9827e-18	8.583e-18
153.34    8.9497e-18	8.549e-18
153.39    8.9117e-18	8.512e-18
153.44    8.8678e-18	8.470e-18
153.49    8.8409e-18	8.421e-18
153.54    8.8160e-18	8.366e-18
153.59    8.7941e-18	8.308e-18
153.64    8.7692e-18	8.248e-18
153.69    8.7500e-18	8.189e-18
153.74    8.7134e-18	8.136e-18
153.79    8.6737e-18	8.092e-18
153.84    8.6367e-18	8.056e-18
153.89    8.5963e-18	8.025e-18
153.94    8.5414e-18	7.999e-18
153.99    8.4883e-18	7.976e-18
154.04    8.4319e-18	7.953e-18
154.09    8.3704e-18	7.932e-18
154.14    8.3074e-18	7.913e-18
154.19    8.2588e-18	7.892e-18
154.24    8.2142e-18	7.868e-18
154.29    8.1701e-18	7.841e-18
154.34    8.1361e-18	7.809e-18
154.39    8.1189e-18	7.773e-18
154.44    8.1001e-18	7.735e-18
154.49    8.0739e-18	7.695e-18
154.54    8.0504e-18	7.650e-18
154.59    8.0273e-18	7.602e-18
154.64    7.9958e-18	7.553e-18
154.69    7.9663e-18	7.503e-18
154.74    7.9453e-18	7.453e-18
154.79    7.9296e-18	7.409e-18
154.84    7.9059e-18	7.368e-18
154.89    7.8798e-18	7.329e-18
154.94    7.8579e-18	7.293e-18
154.99    7.8405e-18	7.259e-18
155.04    7.8171e-18	7.226e-18
155.09    7.7884e-18	7.196e-18
155.14    7.7617e-18	7.166e-18
155.19    7.7280e-18	7.137e-18
155.24    7.6804e-18	7.107e-18
155.29    7.6226e-18	7.078e-18
155.34    7.5664e-18	7.050e-18
155.39    7.5124e-18	7.023e-18
155.44    7.4552e-18	6.998e-18
155.49    7.4075e-18	6.972e-18
155.54    7.3745e-18	6.941e-18
155.59    7.3397e-18	6.909e-18
155.64    7.3013e-18	6.873e-18
155.69    7.2649e-18	6.835e-18
155.74    7.2326e-18	6.797e-18
155.79    7.2030e-18	6.758e-18
155.84    7.1676e-18	6.719e-18
155.89    7.1331e-18	6.679e-18
155.94    7.0998e-18	6.639e-18
155.99    7.0595e-18	6.597e-18
156.04    7.0138e-18	6.555e-18
156.09    6.9712e-18	6.513e-18
156.14    6.9259e-18	6.470e-18
156.19    6.8845e-18	6.425e-18
156.24    6.8451e-18	6.382e-18
156.29    6.8095e-18	6.339e-18
156.34    6.7793e-18	6.298e-18
156.39    6.7511e-18	6.263e-18
156.44    6.7133e-18	6.237e-18
156.49    6.6758e-18	6.216e-18
156.54    6.6365e-18	6.200e-18
156.59    6.5983e-18	6.189e-18
156.64    6.5499e-18	6.179e-18
156.69    6.5038e-18	6.166e-18
156.74    6.4591e-18	6.148e-18
156.79    6.4173e-18	6.126e-18
156.84    6.3720e-18	6.098e-18
156.89    6.3461e-18	6.063e-18
156.94    6.3274e-18	6.023e-18
156.99    6.3086e-18	5.981e-18
157.04    6.2826e-18	5.938e-18
157.09    6.2691e-18	5.895e-18
157.14    6.2472e-18	5.855e-18
157.19    6.2224e-18	5.819e-18
157.24    6.1866e-18	5.784e-18
157.29    6.1584e-18	5.751e-18
157.34    6.1144e-18	5.722e-18
157.39    6.0711e-18	5.692e-18
157.44    6.0292e-18	5.664e-18
157.49    5.9969e-18	5.636e-18
157.54    5.9595e-18	5.605e-18
157.59    5.9282e-18	5.570e-18
157.64    5.8923e-18	5.532e-18
157.69    5.8561e-18	5.493e-18
157.74    5.8179e-18	5.454e-18
157.79    5.7868e-18	5.416e-18
157.84    5.7553e-18	5.380e-18
157.89    5.7248e-18	5.346e-18
157.94    5.7023e-18	5.314e-18
157.99    5.6772e-18	5.287e-18
158.04    5.6509e-18	5.265e-18
158.09    5.6247e-18	5.248e-18
158.14    5.6002e-18	5.235e-18
158.19    5.5585e-18	5.222e-18
158.24    5.5154e-18	5.207e-18
158.29    5.4655e-18	5.188e-18
158.34    5.4141e-18	5.166e-18
158.39    5.3570e-18	5.142e-18
158.44    5.3050e-18	5.116e-18
158.49    5.2552e-18	5.088e-18
158.54    5.2087e-18	5.056e-18
158.59    5.1685e-18	5.022e-18
158.64    5.1371e-18	4.987e-18
158.69    5.1117e-18	4.952e-18
158.74    5.0864e-18	4.919e-18
158.79    5.0647e-18	4.888e-18
158.84    5.0417e-18	4.859e-18
158.89    5.0235e-18	4.829e-18
158.94    4.9956e-18	4.800e-18
158.99    4.9766e-18	4.771e-18
159.04    4.9505e-18	4.739e-18
159.09    4.9240e-18	4.707e-18
159.14    4.8916e-18	4.674e-18
159.19    4.8602e-18	4.638e-18
159.24    4.8251e-18	4.599e-18
159.29    4.7924e-18	4.558e-18
159.34    4.7549e-18	4.516e-18
159.39    4.7270e-18	4.474e-18
159.44    4.6963e-18	4.437e-18
159.49    4.6635e-18	4.404e-18
159.54    4.6300e-18	4.373e-18
159.59    4.6053e-18	4.347e-18
159.64    4.5817e-18	4.323e-18
159.69    4.5648e-18	4.298e-18
159.74    4.5488e-18	4.275e-18
159.79    4.5331e-18	4.251e-18
159.84    4.5110e-18	4.226e-18
159.89    4.4842e-18	4.202e-18
159.94    4.4610e-18	4.176e-18
159.99    4.4402e-18	4.149e-18
160.04    4.4087e-18	4.118e-18
160.09    4.3775e-18	4.085e-18
160.14    4.3453e-18	4.051e-18
160.19    4.3121e-18	4.015e-18
160.24    4.2793e-18	3.979e-18
160.29    4.2531e-18	3.949e-18
160.34    4.2244e-18	3.917e-18
160.39    4.1986e-18	3.882e-18
160.44    4.1733e-18	3.851e-18
160.49    4.1531e-18	3.823e-18
160.54    4.1326e-18	3.796e-18
160.59    4.1100e-18	3.772e-18
160.64    4.0847e-18	3.755e-18
160.69    4.0565e-18	3.735e-18
160.74    4.0257e-18	3.712e-18
160.79    3.9983e-18	3.689e-18
160.84    3.9716e-18	3.671e-18
160.89    3.9431e-18	3.649e-18
160.94    3.9148e-18	3.628e-18
160.99    3.8850e-18	3.607e-18
161.04    3.8545e-18	3.585e-18
161.09    3.8265e-18	3.558e-18
161.14    3.8010e-18	3.536e-18
161.19    3.7774e-18	3.515e-18
161.24    3.7540e-18	3.489e-18
161.29    3.7314e-18	3.463e-18
161.34    3.7115e-18	3.434e-18
161.39    3.6938e-18	3.402e-18
161.44    3.6751e-18	3.372e-18
161.49    3.6570e-18	3.346e-18
161.54    3.6364e-18	3.319e-18
161.59    3.6160e-18	3.288e-18
161.64    3.5900e-18	3.257e-18
161.69    3.5673e-18	3.233e-18
161.74    3.5426e-18	3.206e-18
161.79    3.5179e-18	3.180e-18
161.84    3.4889e-18	3.159e-18
161.89    3.4600e-18	3.137e-18
161.94    3.4318e-18	3.109e-18
161.99    3.4065e-18	3.087e-18
162.04    3.3774e-18	3.070e-18
162.09    3.3497e-18	3.055e-18
162.14    3.3224e-18	3.038e-18
162.19    3.2906e-18	3.017e-18
162.24    3.2566e-18	2.994e-18
162.29    3.2267e-18	2.971e-18
162.34    3.2000e-18	2.949e-18
162.39    3.1701e-18	2.930e-18
162.44    3.1401e-18	2.910e-18
162.49    3.1074e-18	2.889e-18
162.54    3.0744e-18	2.864e-18
162.59    3.0420e-18	2.839e-18
162.64    3.0173e-18	2.815e-18
162.69    2.9949e-18	2.797e-18
162.74    2.9754e-18	2.777e-18
162.79    2.9576e-18	2.758e-18
162.84    2.9404e-18	2.737e-18
162.89    2.9232e-18	2.713e-18
162.94    2.9106e-18	2.687e-18
162.99    2.8987e-18	2.661e-18
163.04    2.8838e-18	2.635e-18
163.09    2.8648e-18	2.609e-18
163.14    2.8441e-18	2.585e-18
163.19    2.8181e-18	2.563e-18
163.24    2.7901e-18	2.543e-18
163.29    2.7660e-18	2.527e-18
163.34    2.7425e-18	2.509e-18
163.39    2.7217e-18	2.492e-18
163.44    2.7024e-18	2.475e-18
163.49    2.6845e-18	2.458e-18
163.54    2.6668e-18	2.440e-18
163.59    2.6464e-18	2.421e-18
163.64    2.6260e-18	2.403e-18
163.69    2.6071e-18	2.383e-18
163.74    2.5867e-18	2.359e-18
163.79    2.5683e-18	2.337e-18
163.84    2.5479e-18	2.316e-18
163.89    2.5294e-18	2.297e-18
163.94    2.5089e-18	2.278e-18
163.99    2.4885e-18	2.261e-18
164.04    2.4694e-18	2.242e-18
164.09    2.4503e-18	2.222e-18
164.14    2.4287e-18	2.201e-18
164.19    2.4074e-18	2.181e-18
164.24    2.3842e-18	2.163e-18
164.29    2.3624e-18	2.142e-18
164.34    2.3391e-18	2.120e-18
164.39    2.3173e-18	2.098e-18
164.44    2.2946e-18	2.076e-18
164.49    2.2748e-18	2.055e-18
164.54    2.2539e-18	2.037e-18
164.59    2.2358e-18	2.020e-18
164.64    2.2169e-18	2.001e-18
164.69    2.1991e-18	1.980e-18
164.74    2.1799e-18	1.958e-18
164.79    2.1604e-18	1.939e-18
164.84    2.1374e-18	1.919e-18
164.89    2.1156e-18	1.902e-18
164.94    2.0920e-18	1.885e-18
164.99    2.0701e-18	1.865e-18
165.04    2.0481e-18	1.844e-18
165.09    2.0279e-18	1.827e-18
165.14    2.0078e-18	1.810e-18
165.19    1.9885e-18	1.795e-18
165.24    1.9694e-18	1.781e-18
165.29    1.9520e-18	1.768e-18
165.34    1.9352e-18	1.754e-18
165.39    1.9189e-18	1.740e-18
165.44    1.9037e-18	1.726e-18
165.49    1.8874e-18	1.714e-18
165.54    1.8721e-18	1.700e-18
165.59    1.8579e-18	1.684e-18
165.64    1.8436e-18	1.670e-18
165.69    1.8303e-18	1.657e-18
165.74    1.8175e-18	1.641e-18
165.79    1.8042e-18	1.626e-18
165.84    1.7921e-18	1.611e-18
165.89    1.7787e-18	1.597e-18
165.94    1.7633e-18	1.580e-18
165.99    1.7477e-18	1.564e-18
166.04    1.7294e-18	1.549e-18
166.09    1.7100e-18	1.534e-18
166.14    1.6906e-18	1.516e-18
166.19    1.6740e-18	1.500e-18
166.24    1.6580e-18	1.485e-18
166.29    1.6426e-18	1.468e-18
166.34    1.6281e-18	1.451e-18
166.39    1.6152e-18	1.437e-18
166.44    1.6006e-18	1.423e-18
166.49    1.5873e-18	1.410e-18
166.54    1.5755e-18	1.397e-18
166.59    1.5640e-18	1.386e-18
166.64    1.5490e-18	1.373e-18
166.69    1.5331e-18	1.359e-18
166.74    1.5160e-18	1.345e-18
166.79    1.4974e-18	1.334e-18
166.84    1.4781e-18	1.324e-18
166.89    1.4631e-18	1.312e-18
166.94    1.4492e-18	1.303e-18
166.99    1.4359e-18	1.292e-18
167.04    1.4239e-18	1.279e-18
167.09    1.4131e-18	1.266e-18
167.14    1.4010e-18	1.255e-18
167.19    1.3886e-18	1.243e-18
167.24    1.3762e-18	1.232e-18
167.29    1.3656e-18	1.221e-18
167.34    1.3537e-18	1.210e-18
167.39    1.3433e-18	1.196e-18
167.44    1.3327e-18	1.184e-18
167.49    1.3201e-18	1.171e-18
167.54    1.3065e-18	1.159e-18
167.59    1.2969e-18	1.145e-18
167.64    1.2841e-18	1.133e-18
167.69    1.2764e-18	1.120e-18
167.74    1.2685e-18	1.107e-18
167.79    1.2583e-18	1.095e-18
167.84    1.2475e-18	1.083e-18
167.89    1.2354e-18	1.073e-18
167.94    1.2248e-18	1.064e-18
167.99    1.2143e-18	1.056e-18
168.04    1.2029e-18	1.050e-18
168.09    1.1948e-18	1.043e-18
168.14    1.1840e-18	1.036e-18
168.19    1.1720e-18	1.028e-18
168.24    1.1606e-18	1.020e-18
168.29    1.1479e-18	1.011e-18
168.34    1.1353e-18	1.000e-18
168.39    1.1219e-18	9.914e-19
168.44    1.1095e-18	9.814e-19
168.49    1.0973e-18	9.707e-19
168.54    1.0847e-18	9.606e-19
168.59    1.0718e-18	9.523e-19
168.64    1.0605e-18	9.429e-19
168.69    1.0488e-18	9.334e-19
168.74    1.0375e-18	9.244e-19
168.79    1.0287e-18	9.147e-19
168.84    1.0196e-18	9.031e-19
168.89    1.0095e-18	8.923e-19
168.94    9.9832e-19	8.832e-19
168.99    9.8686e-19	8.738e-19
169.04    9.7405e-19	8.645e-19
169.09    9.6118e-19	8.556e-19
169.14    9.4876e-19	8.473e-19
169.19    9.3695e-19	8.380e-19
169.24    9.2470e-19	8.309e-19
169.29    9.1308e-19	8.252e-19
169.34    9.0239e-19	8.188e-19
169.39    8.9350e-19	8.105e-19
169.44    8.8630e-19	8.029e-19
169.49    8.7964e-19	7.953e-19
169.54    8.7294e-19	7.875e-19
169.59    8.6575e-19	7.804e-19
169.64    8.5733e-19	7.746e-19
169.69    8.4764e-19	7.687e-19
169.74    8.3819e-19	7.611e-19
169.79    8.2998e-19	7.527e-19
169.84    8.2116e-19	7.456e-19
169.89    8.1165e-19	7.370e-19
169.94    8.0265e-19	7.283e-19
169.99    7.9362e-19	7.202e-19
170.04    7.8503e-19	7.104e-19
170.09    7.7708e-19	7.007e-19
170.14    7.7037e-19	6.908e-19
170.19    7.6344e-19	6.819e-19
170.24    7.5567e-19	6.745e-19
170.29    7.4924e-19	6.673e-19
170.34    7.4400e-19	6.607e-19
170.39    7.3770e-19	6.548e-19
170.44    7.3196e-19	6.487e-19
170.49    7.2649e-19	6.428e-19
170.54    7.1900e-19	6.371e-19
170.59    7.1056e-19	6.324e-19
170.64    7.0220e-19	6.277e-19
170.69    6.9315e-19	6.220e-19
170.74    6.8171e-19	6.161e-19
170.79    6.7039e-19	6.101e-19
170.84    6.6037e-19	6.025e-19
170.89    6.4936e-19	5.939e-19
170.94    6.3947e-19	5.870e-19
170.99    6.3284e-19	5.805e-19
171.04    6.2583e-19	5.729e-19
171.09    6.1939e-19	5.657e-19
171.14    6.1378e-19	5.595e-19
171.19    6.0838e-19	5.525e-19
171.24    6.0348e-19	5.451e-19
171.29    5.9857e-19	5.385e-19
171.34    5.9387e-19	5.327e-19
171.39    5.8871e-19	5.262e-19
171.44    5.8301e-19	5.196e-19
171.49    5.7722e-19	5.130e-19
171.54    5.7103e-19	5.059e-19
171.59    5.6407e-19	4.980e-19
171.64    5.5899e-19	4.907e-19
171.69    5.5186e-19	4.843e-19
171.74    5.4492e-19	4.788e-19
171.79    5.3890e-19	4.745e-19
171.84    5.3270e-19	4.710e-19
171.89    5.2647e-19	4.670e-19
171.94    5.2066e-19	4.631e-19
171.99    5.1444e-19	4.588e-19
172.04    5.0936e-19	4.544e-19
172.09    5.0454e-19	4.499e-19
172.14    4.9932e-19	4.458e-19
172.19    4.9418e-19	4.408e-19
172.24    4.8942e-19	4.360e-19
172.29    4.8379e-19	4.307e-19
172.34    4.7764e-19	4.254e-19
172.39    4.7129e-19	4.206e-19
172.44    4.6547e-19	4.168e-19
172.49    4.5949e-19	4.127e-19
172.54    4.5282e-19	4.089e-19
172.59    4.4768e-19	4.047e-19
172.64    4.4324e-19	3.998e-19
172.69    4.3856e-19	3.936e-19
172.74    4.3479e-19	3.876e-19
172.79    4.3031e-19	3.816e-19
172.84    4.2634e-19	3.759e-19
172.89    4.2211e-19	3.703e-19
172.94    4.1819e-19	3.654e-19
172.99    4.1265e-19	3.600e-19
173.04    4.0775e-19	3.553e-19
173.09    4.0137e-19	3.511e-19
173.14    3.9423e-19	3.477e-19
173.19    3.8700e-19	3.440e-19
173.24    3.8078e-19	3.410e-19
173.29    3.7484e-19	3.370e-19
173.34    3.6965e-19	3.329e-19
173.39    3.6538e-19	3.283e-19
173.44    3.6148e-19	3.240e-19
173.49    3.5695e-19	3.192e-19
173.54    3.5295e-19	3.147e-19
173.59    3.4922e-19	3.099e-19
173.64    3.4543e-19	3.047e-19
173.69    3.4137e-19	2.997e-19
173.74    3.3805e-19	2.952e-19
173.79    3.3454e-19	2.911e-19
173.84    3.3061e-19	2.879e-19
173.89    3.2642e-19	2.854e-19
173.94    3.2309e-19	2.832e-19
173.99    3.1959e-19	2.805e-19
174.04    3.1557e-19	2.780e-19
174.09    3.1162e-19	2.759e-19
174.14    3.0807e-19	2.733e-19
174.19    3.0285e-19	2.708e-19
174.24    2.9717e-19	2.683e-19
174.29    2.9108e-19	2.654e-19
174.34    2.8559e-19	2.613e-19
174.39    2.7997e-19	2.569e-19
174.44    2.7490e-19	2.525e-19
174.49    2.7047e-19	2.477e-19
174.54    2.6714e-19	2.431e-19
174.59    2.6451e-19	2.393e-19
174.64    2.6158e-19	2.359e-19
174.69    2.5923e-19	2.325e-19
174.74    2.5681e-19	2.299e-19
174.79    2.5351e-19	2.273e-19
174.84    2.4938e-19	2.241e-19
174.89    2.4601e-19	2.213e-19
174.94    2.4246e-19	2.175e-19
174.99    2.3782e-19	2.121e-19
175.04    2.3291e-19	2.105e-19
175.09    2.3055e-19	2.085e-19
175.14    2.2751e-19	2.058e-19
175.19    2.2457e-19	2.018e-19
175.24    2.2157e-19	1.978e-19
175.29    2.1857e-19	1.938e-19
175.34    2.1557e-19	1.898e-19
175.39    2.1257e-19	1.858e-19
175.44    2.0957e-19	1.818e-19
175.49    2.0657e-19	1.778e-19
