# Reference: Paur and Bass, 1985 Quadrennial Ozone Symposium, Halkidiki, Greece
# Comments : Compiled from data supplied by Michiel van Weele, KNMI, The Netherlands
# SIGMA = (C0 + C1*(T-T0) + C2*(T-T0)**2) * 1.E-20 cm^2
# where T0 = 273.13 and T is in Kelvin
#
# wavelength  
# (air nm)         C0          C1(T)       C2(T^2)
   245.018      9.90790e+02     -2.03600e-01     -2.39450e-03
   245.068      9.94290e+02     -2.49790e-01     -2.45170e-03
   245.118      9.96070e+02     -2.07220e-01     -1.33620e-03
   245.168      1.00310e+03     -2.52820e-01     -1.67160e-03
   245.218      1.00790e+03     -3.35230e-01     -3.73620e-03
   245.268      1.00960e+03     -2.45260e-01     -1.67810e-03
   245.318      1.01160e+03     -3.14760e-01     -2.93910e-03
   245.368      1.01420e+03     -2.81480e-01     -2.50050e-03
   245.418      1.01720e+03     -2.31250e-01     -1.93300e-03
   245.468      1.01950e+03     -2.45610e-01     -2.33360e-03
   245.518      1.01970e+03     -1.72280e-01     -8.91880e-04
   245.568      1.02280e+03     -2.47310e-01     -2.70990e-03
   245.618      1.02480e+03     -2.01190e-01     -2.65180e-03
   245.668      1.02420e+03     -1.85820e-01     -1.55820e-03
   245.718      1.02860e+03     -2.63800e-01     -3.59300e-03
   245.768      1.02640e+03     -2.19050e-01     -2.19110e-03
   245.818      1.02520e+03     -1.57080e-01     -1.62440e-03
   245.868      1.02750e+03     -2.55330e-01     -3.78580e-03
   245.918      1.02450e+03     -2.20310e-01     -2.26660e-03
   245.968      1.02690e+03     -1.13650e-01     -1.23790e-03
   246.018      1.03150e+03     -2.94440e-01     -5.39590e-03
   246.068      1.02460e+03     -1.98470e-01     -2.40940e-03
   246.118      1.02640e+03     -1.63110e-01     -2.32140e-03
   246.168      1.02710e+03     -1.76780e-01     -2.85080e-03
   246.218      1.02890e+03     -2.17550e-01     -4.23950e-03
   246.268      1.02660e+03     -1.63790e-01     -3.11390e-03
   246.318      1.02370e+03     -1.11090e-01     -1.18130e-03
   246.368      1.02660e+03     -1.43720e-01     -2.88740e-03
   246.418      1.02480e+03     -1.34480e-01     -1.43420e-03
   246.468      1.02790e+03     -1.49610e-01     -2.43620e-03
   246.518      1.02450e+03     -9.69750e-02     -1.87100e-04
   246.568      1.02380e+03     -1.04070e-01     -5.88250e-04
   246.618      1.02800e+03     -1.72300e-01     -2.13880e-03
   246.668      1.03040e+03     -2.14240e-01     -3.47990e-03
   246.718      1.02920e+03     -1.51850e-01     -2.07860e-03
   246.768      1.03050e+03     -1.94920e-01     -2.30460e-03
   246.818      1.03100e+03     -1.04850e-01     -6.19330e-04
   246.868      1.03520e+03     -1.48450e-01     -1.93760e-03
   246.918      1.03450e+03     -1.20460e-01      5.40330e-06
   246.968      1.03790e+03     -2.21850e-01     -1.35850e-03
   247.018      1.04260e+03     -2.48620e-01     -2.10190e-03
   247.068      1.04450e+03     -2.31800e-01     -1.57440e-03
   247.118      1.04540e+03     -1.45640e-01     -3.71070e-05
   247.168      1.05050e+03     -1.90030e-01     -9.72110e-04
   247.218      1.05230e+03     -1.69300e-01     -3.11940e-04
   247.268      1.05460e+03     -1.20680e-01      5.36580e-04
   247.318      1.05940e+03     -2.35500e-01     -2.59980e-03
   247.368      1.05940e+03     -1.42340e-01     -6.07230e-04
   247.418      1.05950e+03     -1.36840e-01     -4.10930e-04
   247.468      1.06300e+03     -2.18270e-01     -1.95020e-03
   247.518      1.06480e+03     -2.32710e-01     -3.04930e-03
   247.568      1.06480e+03     -2.00950e-01     -1.78120e-03
   247.618      1.06970e+03     -2.22520e-01     -4.41710e-03
   247.668      1.06360e+03     -3.63000e-02      1.83720e-03
   247.718      1.06570e+03     -1.00840e-01      8.07860e-05
   247.768      1.06860e+03     -1.17260e-01      1.69240e-05
   247.818      1.06450e+03     -5.97820e-02      1.13390e-03
   247.868      1.06760e+03     -8.41570e-02     -1.14710e-03
   247.918      1.06430e+03     -4.97930e-02      4.47610e-04
   247.968      1.06510e+03     -7.50710e-02     -1.57500e-04
   248.018      1.06410e+03     -6.97520e-02     -1.64830e-03
   248.068      1.06260e+03     -1.02250e-01     -1.18140e-03
   248.118      1.06100e+03     -1.04120e-01     -9.43000e-04
   248.168      1.06060e+03     -9.67160e-02     -5.07150e-04
   248.218      1.06560e+03     -2.25450e-01     -3.60000e-03
   248.268      1.06160e+03     -6.38720e-02     -3.31280e-04
   248.318      1.06880e+03     -2.17580e-01     -3.34980e-03
   248.368      1.06740e+03     -1.49460e-01     -1.20230e-03
   248.418      1.06940e+03     -9.48110e-02      1.57550e-04
   248.468      1.07260e+03     -1.19250e-01      2.13100e-04
   248.518      1.07810e+03     -1.46810e-01     -8.04900e-04
   248.568      1.08280e+03     -2.66000e-01     -2.67220e-03
   248.618      1.08520e+03     -1.99800e-01     -1.14610e-03
   248.668      1.09200e+03     -3.03870e-01     -2.19870e-03
   248.718      1.09370e+03     -2.42550e-01     -1.42860e-03
   248.768      1.09470e+03     -1.99170e-01     -6.56640e-05
   248.818      1.09670e+03     -1.69770e-01      2.10740e-04
   248.868      1.10810e+03     -4.14110e-01     -6.83270e-03
   248.918      1.10440e+03     -2.20000e-01     -1.46160e-03
   248.968      1.10510e+03     -2.17270e-01     -1.33870e-03
   249.018      1.10130e+03     -1.37460e-01      1.26330e-03
   249.068      1.10210e+03     -1.36500e-01      4.49090e-04
   249.118      1.10160e+03     -1.15110e-01      1.29590e-04
   249.168      1.10440e+03     -1.56680e-01     -1.51350e-03
   249.218      1.10170e+03     -1.75650e-01     -1.74770e-03
   249.268      1.10150e+03     -1.39750e-01     -1.81950e-03
   249.318      1.10070e+03     -1.59320e-01     -6.36390e-04
   249.368      1.10250e+03     -1.26710e-01     -1.28360e-03
   249.418      1.09730e+03     -7.81970e-02      9.39600e-04
   249.468      1.10290e+03     -1.52820e-01     -1.38970e-03
   249.518      1.10050e+03     -4.71750e-02      1.39190e-03
   249.568      1.10860e+03     -2.20450e-01     -2.56880e-03
   249.618      1.10970e+03     -1.82510e-01     -2.28750e-03
   249.668      1.11630e+03     -2.75000e-01     -3.88610e-03
   249.718      1.11380e+03     -2.37840e-01     -2.41730e-03
   249.768      1.11280e+03     -1.35940e-01     -5.22270e-04
   249.818      1.11300e+03     -1.55290e-01     -5.46960e-04
   249.868      1.11580e+03     -1.96710e-01     -1.63840e-03
   249.912      1.11540e+03     -1.92260e-01     -1.70040e-03
   249.962      1.11630e+03     -1.35030e-01     -7.46600e-04
   250.012      1.11570e+03     -1.62800e-01     -8.02460e-04
   250.062      1.11750e+03     -1.84760e-01     -2.91820e-03
   250.112      1.11360e+03     -1.04540e-01     -1.07160e-03
   250.162      1.11340e+03     -1.43970e-01     -1.70760e-03
   250.212      1.10850e+03     -6.73940e-02      2.12770e-04
   250.262      1.10650e+03     -3.30630e-02      5.72250e-05
   250.312      1.10570e+03     -3.58670e-02      3.83400e-04
   250.362      1.10460e+03     -6.70870e-02     -4.35710e-04
   250.412      1.10350e+03     -4.27140e-02     -5.06050e-04
   250.462      1.10180e+03     -1.06220e-03      3.21030e-04
   250.512      1.10520e+03     -1.31450e-01     -2.81090e-03
   250.562      1.10250e+03     -2.97290e-02     -3.89530e-04
   250.612      1.10140e+03     -4.22980e-03      4.55960e-05
   250.662      1.10320e+03     -9.04020e-02     -1.77900e-03
   250.711      1.10190e+03     -6.50680e-02     -1.32550e-04
   250.761      1.10200e+03     -1.24870e-02      7.95160e-04
   250.811      1.10550e+03     -1.57550e-01     -2.14600e-03
   250.861      1.10190e+03     -7.38390e-02      6.50510e-05
   250.911      1.10670e+03     -1.46390e-01     -1.60060e-03
   250.961      1.10690e+03     -1.07300e-01     -2.44700e-04
   251.011      1.10660e+03     -1.03140e-01     -2.15380e-04
   251.061      1.11020e+03     -1.63960e-01     -1.78170e-03
   251.111      1.10890e+03     -7.29160e-02     -1.69300e-05
   251.161      1.11330e+03     -1.54580e-01     -1.63200e-03
   251.211      1.11510e+03     -1.40040e-01     -6.05760e-04
   251.261      1.11820e+03     -2.37570e-01     -1.92300e-03
   251.311      1.12410e+03     -1.93550e-01     -1.46280e-03
   251.361      1.12860e+03     -1.97580e-01     -1.24650e-03
   251.411      1.13350e+03     -1.65030e-01      1.82400e-04
   251.461      1.14000e+03     -2.67550e-01     -1.57490e-03
   251.511      1.14390e+03     -2.34610e-01     -1.08870e-03
   251.561      1.14890e+03     -2.82290e-01     -2.13640e-03
   251.611      1.15200e+03     -2.10210e-01     -1.46430e-03
   251.661      1.15190e+03     -2.33810e-01     -8.79300e-04
   251.711      1.15270e+03     -1.76700e-01      1.70660e-04
   251.761      1.15470e+03     -1.90770e-01     -1.33300e-03
   251.811      1.15390e+03     -1.81580e-01     -8.37040e-04
   251.861      1.14900e+03     -1.37150e-01      3.83550e-04
   251.911      1.15000e+03     -9.19790e-02     -3.46120e-04
   251.961      1.14910e+03     -7.21000e-02     -2.92790e-04
   252.011      1.14620e+03     -9.45650e-02     -6.28130e-04
   252.061      1.14400e+03      9.79120e-03      2.75040e-04
   252.111      1.14280e+03     -8.89420e-02     -6.08580e-04
   252.161      1.14210e+03     -4.46480e-02     -5.63610e-04
   252.212      1.13490e+03     -8.77270e-02     -1.38340e-04
   252.262      1.13610e+03     -1.28480e-01     -1.43150e-03
   252.312      1.13390e+03     -1.08790e-01     -6.68380e-04
   252.362      1.13160e+03      4.94060e-03      5.62160e-04
   252.412      1.12920e+03      2.83850e-02      1.22010e-03
   252.462      1.12580e+03     -4.32840e-02      4.33150e-04
   252.512      1.12970e+03     -1.48420e-01     -2.54940e-03
   252.562      1.13040e+03     -1.86120e-01     -3.54580e-03
   252.612      1.12710e+03     -1.31220e-01     -2.08310e-03
   252.662      1.12750e+03     -1.46640e-01     -2.03850e-03
   252.712      1.12870e+03     -1.26560e-01     -1.84950e-03
   252.762      1.12610e+03     -1.28410e-01     -7.43800e-04
   252.812      1.12990e+03     -2.07340e-01     -3.31970e-03
   252.862      1.13490e+03     -2.36740e-01     -4.50420e-03
   252.912      1.13540e+03     -1.78290e-01     -2.81080e-03
   252.962      1.13110e+03     -1.35940e-01     -4.96530e-04
   253.012      1.13060e+03     -3.15720e-01     -2.37160e-03
   253.062      1.13360e+03     -2.20950e-01     -2.27990e-03
   253.112      1.13650e+03     -1.91460e-01     -2.96880e-03
   253.162      1.13830e+03     -1.74640e-01     -1.96710e-03
   253.212      1.13790e+03     -9.09860e-03      2.40130e-04
   253.262      1.13600e+03     -1.07370e-01     -1.24330e-04
   253.312      1.13770e+03     -9.35600e-02     -1.34230e-04
   253.362      1.14490e+03     -2.01620e-01     -2.81170e-03
   253.412      1.14230e+03     -9.57320e-02      1.65930e-06
   253.462      1.14530e+03     -1.33310e-01     -9.50640e-04
   253.512      1.14660e+03     -6.06010e-02      7.47070e-04
   253.562      1.14890e+03     -1.61100e-01     -1.03870e-03
   253.612      1.15170e+03     -1.97340e-01     -2.11740e-03
   253.662      1.14980e+03     -1.60310e-01     -1.35900e-03
   253.712      1.15190e+03     -1.94760e-01     -2.14540e-03
   253.762      1.15040e+03     -1.73430e-01     -9.92390e-04
   253.812      1.15230e+03     -2.01670e-01     -2.35600e-03
   253.862      1.14910e+03     -9.70420e-02      6.31590e-04
   253.912      1.15210e+03     -1.99170e-01     -1.92280e-03
   253.962      1.15040e+03     -1.85080e-01     -1.51670e-03
   254.012      1.14740e+03     -5.65240e-02      1.13470e-03
   254.062      1.14630e+03     -9.79710e-02      1.98470e-05
   254.112      1.14440e+03     -5.34520e-02      1.45280e-03
   254.162      1.14370e+03     -9.50790e-02     -4.11390e-04
   254.212      1.14390e+03     -1.28340e-01     -1.53930e-03
   254.262      1.13710e+03     -1.08260e-02      1.15500e-03
   254.312      1.13110e+03      8.98630e-03      2.54870e-03
   254.362      1.13140e+03     -3.44000e-02      1.59380e-04
   254.412      1.13320e+03     -7.41570e-02     -1.63120e-03
   254.462      1.13100e+03     -7.90660e-03     -4.93170e-04
   254.512      1.13040e+03     -1.66960e-02     -8.94270e-04
   254.562      1.12850e+03      2.72670e-02      5.01110e-04
   254.612      1.13120e+03     -5.44570e-02     -1.20270e-03
   254.662      1.12980e+03     -6.20890e-02     -6.05130e-04
   254.712      1.13410e+03     -6.30860e-02     -8.49760e-04
   254.762      1.13630e+03     -8.25690e-02     -1.15910e-03
   254.812      1.14020e+03     -1.43340e-01     -2.21610e-03
   254.862      1.14550e+03     -1.27360e-01     -1.83930e-03
   254.912      1.14910e+03     -2.16050e-01     -2.28250e-03
   254.962      1.15080e+03     -1.07350e-01      6.14320e-05
   255.012      1.15570e+03     -1.52250e-01     -1.42000e-03
   255.062      1.15700e+03     -1.05210e-01      1.05080e-03
   255.112      1.16380e+03     -1.97820e-01     -9.93680e-04
   255.162      1.17100e+03     -3.10570e-01     -4.37930e-03
   255.212      1.17140e+03     -2.49020e-01     -1.77280e-03
   255.262      1.16930e+03     -1.27770e-01     -2.85680e-05
   255.312      1.17010e+03     -1.61770e-01     -2.80830e-04
   255.362      1.17070e+03     -1.74710e-01     -1.51610e-03
   255.412      1.17000e+03     -1.64430e-01     -1.25950e-03
   255.462      1.16230e+03     -4.74500e-02      2.08660e-03
   255.512      1.16430e+03     -8.04580e-02      5.02000e-04
   255.562      1.16080e+03      1.18970e-02      1.21430e-03
   255.612      1.15910e+03     -5.44910e-02      2.46020e-04
   255.662      1.15490e+03     -5.25070e-03      6.86660e-04
   255.712      1.15630e+03     -7.69170e-02     -7.09910e-04
   255.762      1.15200e+03     -1.45980e-02      4.97090e-04
   255.812      1.15180e+03     -2.14840e-02      1.15320e-04
   255.862      1.15090e+03     -8.70440e-02     -1.42330e-03
   255.912      1.14730e+03     -4.05860e-02     -1.97790e-04
   255.962      1.14460e+03     -1.61970e-02      1.43950e-04
   256.011      1.14280e+03      3.23990e-03     -3.30920e-04
   256.061      1.14180e+03     -3.65710e-02     -4.85260e-04
   256.111      1.13740e+03      6.98060e-03      5.32780e-04
   256.161      1.13460e+03      7.34870e-03      5.06100e-04
   256.211      1.13370e+03     -3.16120e-02     -5.80300e-04
   256.261      1.12940e+03      1.72430e-02      2.74030e-04
   256.311      1.12430e+03      1.22690e-01      2.32340e-03
   256.361      1.12810e+03     -1.73400e-02     -1.82020e-03
   256.411      1.11850e+03      1.43660e-01      2.29500e-03
   256.461      1.12040e+03     -5.81280e-02     -2.35300e-03
   256.511      1.12050e+03     -1.62570e-01     -3.70250e-03
   256.561      1.11820e+03     -7.14330e-02     -2.00170e-03
   256.611      1.11770e+03     -3.48840e-02     -4.62180e-04
   256.661      1.11830e+03     -5.96890e-02     -5.89810e-04
   256.711      1.11870e+03     -8.72650e-03      4.16100e-05
   256.761      1.11900e+03     -2.88740e-03     -1.97560e-04
   256.811      1.12230e+03     -1.10770e-01     -2.03190e-03
   256.861      1.12570e+03     -1.17140e-01     -1.37330e-03
   256.911      1.12710e+03     -9.69410e-02     -8.44430e-04
   256.961      1.12810e+03     -7.69580e-02      1.31210e-04
   257.011      1.12880e+03     -6.93360e-02     -4.68190e-05
   257.061      1.13190e+03     -1.24570e-01     -7.23870e-04
   257.111      1.13010e+03     -5.75580e-02      1.68450e-04
   257.161      1.13000e+03     -1.03370e-01     -3.58630e-04
   257.211      1.12780e+03     -2.58890e-02      1.30280e-03
   257.261      1.12760e+03     -5.87970e-02      3.20960e-04
   257.311      1.12520e+03     -7.13190e-02      1.03620e-04
   257.361      1.12130e+03      1.37040e-02      1.47060e-03
   257.411      1.11880e+03     -1.01990e-01     -7.55100e-05
   257.461      1.11850e+03     -4.26520e-02      8.57920e-05
   257.511      1.11640e+03      1.69250e-02      8.48760e-04
   257.561      1.11470e+03      4.09720e-03      6.94210e-04
   257.611      1.11440e+03     -2.47750e-02      5.36610e-04
   257.661      1.11480e+03      4.69030e-03      6.76370e-05
   257.711      1.11620e+03     -8.39830e-02     -1.13540e-03
   257.761      1.11410e+03      4.29680e-02      1.13130e-03
   257.811      1.11460e+03     -2.29890e-02     -3.34310e-04
   257.861      1.11380e+03     -1.26120e-02      2.33770e-04
   257.911      1.11000e+03      5.78720e-02      1.46290e-03
   257.961      1.11190e+03     -3.53140e-02     -4.57570e-04
   258.011      1.11140e+03      1.00300e-02      7.03100e-04
   258.061      1.11350e+03     -8.59010e-02     -6.04660e-04
   258.111      1.11570e+03     -9.83120e-02     -9.50920e-04
   258.161      1.11900e+03     -1.93920e-02      5.46530e-04
   258.211      1.12220e+03     -8.23450e-02      8.29660e-04
   258.261      1.12570e+03     -9.73510e-02     -1.84560e-04
   258.311      1.13200e+03     -2.10520e-01     -2.06950e-03
   258.361      1.13750e+03     -1.77100e-01     -1.05650e-03
   258.411      1.14190e+03     -1.91000e-01     -7.95590e-04
   258.461      1.14730e+03     -1.85070e-01     -1.28650e-03
   258.511      1.15200e+03     -2.96750e-01     -4.12910e-03
   258.561      1.14980e+03     -1.43500e-01      6.81220e-04
   258.611      1.15520e+03     -1.86150e-01     -1.11460e-03
   258.661      1.15030e+03     -6.24000e-02      2.01840e-03
   258.711      1.14930e+03     -7.94810e-02      1.33820e-03
   258.761      1.14940e+03     -7.91700e-02      1.21340e-03
   258.811      1.14580e+03      1.28220e-02      2.61060e-03
   258.861      1.14310e+03     -1.05060e-02      2.17210e-03
   258.911      1.14000e+03      1.88910e-02      2.34140e-03
   258.961      1.13720e+03     -3.77410e-02      8.21310e-04
   259.011      1.13470e+03     -7.23240e-03      7.43200e-04
   259.061      1.12780e+03      1.96660e-02      1.65100e-03
   259.111      1.11830e+03      1.52960e-01      3.93640e-03
   259.161      1.11120e+03      1.30540e-01      2.30030e-03
   259.211      1.10560e+03      1.64250e-01      2.98210e-03
   259.261      1.10110e+03      1.35420e-01      2.06210e-03
   259.311      1.09310e+03      1.53240e-01      2.94220e-03
   259.361      1.08920e+03      1.63790e-01      2.22920e-03
   259.411      1.08300e+03      1.83490e-01      1.51850e-03
   259.461      1.07740e+03      1.38080e-01      8.81980e-04
   259.511      1.07460e+03      9.71440e-02      5.10890e-04
   259.561      1.07170e+03      1.20580e-01      2.13830e-04
   259.611      1.06650e+03      1.10890e-01      8.19630e-04
   259.661      1.06490e+03      1.50370e-01      1.67210e-03
   259.711      1.06620e+03      3.90690e-02     -1.80640e-03
   259.761      1.06220e+03      1.53800e-01      1.26580e-03
   259.811      1.06300e+03      3.33930e-02     -8.47810e-06
   259.861      1.06270e+03      4.29560e-02      3.12180e-04
   259.911      1.06450e+03     -9.41610e-03     -5.86560e-04
   259.961      1.06630e+03      1.40320e-02     -4.59150e-04
   260.011      1.07210e+03     -6.14290e-02     -2.13490e-03
   260.061      1.07140e+03      3.56910e-02      3.87580e-04
   260.111      1.07890e+03     -5.66000e-02     -4.65960e-04
   260.161      1.08470e+03     -1.37280e-01     -2.14970e-03
   260.211      1.09140e+03     -2.26040e-01     -3.68250e-03
   260.261      1.09040e+03     -7.31380e-02      8.13290e-04
   260.311      1.09770e+03     -2.41560e-01     -3.50680e-03
   260.361      1.10000e+03     -1.74210e-01     -9.52460e-04
   260.411      1.10390e+03     -1.85810e-01     -1.42790e-03
   260.461      1.10580e+03     -2.01330e-01     -1.18180e-03
   260.511      1.11090e+03     -2.66400e-01     -3.57750e-03
   260.561      1.10920e+03     -2.08010e-01     -1.57320e-03
   260.611      1.11120e+03     -2.19570e-01     -2.83280e-03
   260.661      1.10920e+03     -1.70180e-01     -1.04890e-03
   260.711      1.10420e+03     -7.89820e-02      2.48820e-05
   260.761      1.10210e+03     -9.80900e-03      1.52090e-03
   260.811      1.09700e+03     -5.96090e-02      5.67760e-04
   260.861      1.09360e+03     -1.02620e-02      1.20480e-03
   260.911      1.08840e+03     -3.61490e-02     -1.45070e-04
   260.961      1.08790e+03     -6.12280e-02     -1.69990e-03
   261.011      1.07980e+03      5.79420e-02      6.20350e-04
   261.061      1.07540e+03      5.15770e-02     -6.54840e-04
   261.111      1.06930e+03      6.39870e-02     -1.13190e-03
   261.161      1.06200e+03      1.02650e-01      6.05140e-04
   261.211      1.05950e+03      1.04330e-01     -1.73920e-04
   261.261      1.05370e+03      1.43700e-01      4.51870e-04
   261.311      1.05120e+03      7.95130e-02     -2.77040e-04
   261.361      1.04790e+03      6.66640e-02     -9.51670e-04
   261.411      1.04660e+03      1.49920e-02     -1.66100e-03
   261.461      1.04530e+03      4.81540e-02     -3.97630e-04
   261.511      1.04550e+03     -1.21350e-02     -3.00300e-03
   261.561      1.04200e+03      4.07550e-02     -1.49700e-04
   261.611      1.04120e+03      8.91810e-02      1.23140e-03
   261.661      1.04230e+03     -4.28450e-02     -1.71470e-03
   261.711      1.03940e+03      5.59690e-02      1.54560e-03
   261.761      1.04150e+03      2.98080e-02      1.27360e-03
   261.811      1.04570e+03     -4.72250e-02     -1.83230e-03
   261.861      1.04330e+03     -2.78460e-02     -3.23980e-04
   261.911      1.04670e+03     -5.47900e-02     -1.72930e-03
   261.961      1.04730e+03     -4.52100e-02     -2.65110e-04
   262.011      1.04750e+03     -3.68920e-02     -3.00860e-04
   262.061      1.04720e+03     -5.44030e-02      3.04480e-04
   262.111      1.05150e+03     -1.26990e-01     -6.05260e-04
   262.161      1.05470e+03     -1.03210e-01     -2.16180e-03
   262.211      1.05540e+03     -1.14150e-01     -8.93480e-04
   262.261      1.05680e+03     -1.31440e-01     -8.44090e-04
   262.311      1.06000e+03     -1.39530e-01     -1.83830e-03
   262.361      1.06180e+03     -1.52440e-01     -1.40400e-03
   262.411      1.06050e+03     -1.53740e-01     -3.21060e-03
   262.461      1.05970e+03     -8.74930e-02     -2.23880e-03
   262.511      1.05570e+03     -1.38050e-01     -1.31410e-03
   262.561      1.05320e+03     -1.35130e-01     -3.08700e-03
   262.611      1.04830e+03     -5.97730e-02     -2.27970e-03
   262.661      1.04630e+03     -8.55220e-02     -3.87290e-03
   262.711      1.04220e+03     -9.23880e-02     -3.90570e-03
   262.761      1.03370e+03      1.47640e-02     -2.01400e-03
   262.811      1.03140e+03     -3.50850e-02     -3.88080e-03
   262.861      1.02470e+03      3.91390e-02     -2.87630e-03
   262.911      1.01800e+03      1.62920e-02     -3.45030e-03
   262.961      1.01050e+03      7.42030e-02     -2.32870e-03
   263.011      1.00830e+03      3.55960e-02     -3.25760e-03
   263.061      1.00440e+03      2.21250e-02     -3.80560e-03
   263.111      1.00020e+03      2.36490e-02     -3.26010e-03
   263.161      9.96970e+02      1.14890e-01     -1.39770e-03
   263.211      9.94320e+02      7.04950e-02     -2.65990e-03
   263.261      9.92220e+02      8.15900e-02     -2.20770e-03
   263.311      9.88530e+02      6.75020e-02     -1.24290e-03
   263.361      9.86540e+02     -5.53130e-03     -2.66530e-03
   263.411      9.86300e+02      5.46410e-02     -1.94200e-03
   263.461      9.81880e+02      9.90170e-02     -7.95460e-04
   263.511      9.87140e+02     -8.92520e-02     -4.81270e-03
   263.561      9.85930e+02     -1.56850e-02     -2.96520e-03
   263.611      9.87900e+02     -4.86160e-02     -2.75490e-03
   263.661      9.84540e+02     -7.19520e-03      9.07770e-05
   263.711      9.89990e+02     -9.31240e-02     -3.12110e-03
   263.761      9.90740e+02     -1.11360e-01     -2.43610e-03
   263.811      9.91380e+02     -1.01420e-01     -1.93470e-03
   263.861      9.93880e+02     -2.09710e-01     -3.51250e-03
   263.911      9.95210e+02     -1.87040e-01     -2.99790e-03
   263.961      1.00010e+03     -2.21850e-01     -3.77120e-03
   264.011      9.97920e+02     -1.66280e-01     -1.88370e-03
   264.061      9.98230e+02     -6.98090e-02     -4.73340e-04
   264.111      1.00150e+03     -9.63730e-02     -7.42140e-04
   264.161      1.00290e+03     -1.71280e-01     -2.28550e-03
   264.211      1.00360e+03     -1.71450e-01     -2.61310e-03
   264.261      1.00520e+03     -2.24590e-01     -3.35960e-03
   264.311      1.00620e+03     -1.94680e-01     -3.66200e-03
   264.361      1.00300e+03     -1.18020e-01     -1.63190e-03
   264.411      1.00280e+03     -1.82340e-01     -3.08840e-03
   264.461      1.00270e+03     -1.47130e-01     -3.27380e-03
   264.511      9.98230e+02     -7.53670e-02     -1.67200e-03
   264.561      9.98190e+02     -1.68040e-01     -4.20670e-03
   264.611      9.94380e+02     -1.40320e-01     -4.83280e-03
   264.661      9.88100e+02     -9.40340e-02     -3.45490e-03
   264.711      9.83010e+02      1.05180e-02     -2.44180e-03
   264.761      9.78180e+02     -3.54430e-02     -3.64980e-03
   264.811      9.70640e+02      8.19240e-02     -1.12750e-03
   264.861      9.66610e+02      2.53650e-02     -3.67800e-03
   264.911      9.58960e+02      3.31660e-02     -1.94170e-03
   264.961      9.55890e+02      5.45920e-02     -3.10810e-03
   265.011      9.56520e+02      2.54340e-02     -3.54540e-03
   265.061      9.54980e+02      3.06410e-03     -4.01430e-03
   265.111      9.50120e+02      5.79870e-02     -9.02210e-04
   265.161      9.50500e+02      4.06470e-02     -1.47570e-03
   265.211      9.49180e+02      2.46230e-02     -8.46730e-04
   265.261      9.53620e+02      3.29100e-02     -1.64500e-03
   265.311      9.51410e+02      3.02850e-02     -1.09760e-04
   265.361      9.55970e+02     -5.44850e-03     -7.11600e-04
   265.411      9.59350e+02     -1.48000e-01     -3.25610e-03
   265.461      9.55130e+02      9.73530e-03     -6.10440e-05
   265.511      9.56970e+02     -1.25330e-01     -2.11670e-03
   265.561      9.61400e+02     -2.03450e-01     -4.93160e-03
   265.611      9.54020e+02     -1.02590e-02     -4.21030e-04
   265.661      9.51740e+02     -3.40570e-02     -7.24050e-04
   265.711      9.48500e+02      7.19780e-02      8.18410e-04
   265.761      9.45470e+02      5.98030e-02      1.22220e-03
   265.811      9.48510e+02     -9.65530e-03     -1.48600e-04
   265.861      9.46470e+02     -1.15660e-01     -3.42750e-03
   265.911      9.39680e+02     -2.22930e-02     -1.11610e-03
   265.961      9.39460e+02     -5.46550e-02     -2.32270e-03
   266.011      9.32620e+02      7.91730e-02     -1.43750e-04
   266.061      9.32840e+02     -3.84800e-02     -7.99040e-04
   266.111      9.30320e+02     -5.70960e-02     -2.62010e-03
   266.161      9.27510e+02     -8.64940e-02     -2.96980e-03
   266.211      9.23330e+02      1.97770e-02     -1.02420e-03
   266.261      9.20110e+02      7.66770e-02      3.35640e-04
   266.311      9.21420e+02     -1.27470e-02     -1.75560e-03
   266.361      9.16300e+02      9.85600e-02      7.48990e-04
   266.411      9.15910e+02     -7.57580e-02     -1.82930e-03
   266.461      9.07510e+02      1.83840e-01      4.74860e-03
   266.511      9.07100e+02      1.17150e-01      1.43760e-03
   266.561      9.05050e+02      8.43210e-02      7.50810e-04
   266.611      9.00950e+02      1.23740e-01      2.83730e-03
   266.661      8.96310e+02      8.57630e-02      7.45280e-04
   266.711      8.89070e+02      1.63510e-01      2.12200e-03
   266.761      8.84690e+02      1.55370e-01      2.03220e-03
   266.811      8.80850e+02      1.71030e-01      2.12990e-03
   266.861      8.74490e+02      2.23870e-01      2.17030e-03
   266.911      8.74350e+02      7.25420e-02     -5.83980e-04
   266.961      8.72030e+02      9.44440e-02     -6.27290e-04
   267.011      8.69310e+02      1.16370e-01     -4.75010e-04
   267.061      8.68540e+02      4.98840e-02     -1.01500e-03
   267.111      8.70780e+02     -6.17340e-03     -2.22720e-03
   267.161      8.68430e+02      8.88490e-02     -9.21210e-04
   267.211      8.75760e+02     -2.76690e-02     -2.52870e-03
   267.261      8.75240e+02      1.67900e-02     -1.12920e-03
   267.311      8.81130e+02     -6.12690e-02     -2.12960e-03
   267.361      8.83320e+02     -8.44780e-02     -9.65850e-04
   267.411      8.85240e+02     -4.72260e-02     -1.04510e-04
   267.461      8.83370e+02      2.37190e-02      9.45970e-04
   267.511      8.87670e+02     -9.37970e-02     -1.14540e-03
   267.561      8.85000e+02      1.73410e-02      1.12060e-03
   267.611      8.83630e+02      2.13800e-02      2.08720e-03
   267.661      8.84410e+02     -2.39390e-02     -3.81860e-04
   267.711      8.78380e+02      5.10300e-02      1.88690e-03
   267.761      8.73910e+02      1.06930e-01      3.38440e-03
   267.811      8.74980e+02      2.23240e-02      4.92540e-04
   267.861      8.72010e+02      1.07770e-01      1.35860e-03
   267.911      8.67480e+02      8.03810e-02      7.62720e-04
   267.960      8.63300e+02      3.30960e-02      3.33750e-04
   268.010      8.60210e+02      1.11590e-02      2.27280e-04
   268.060      8.56060e+02      1.10080e-01      1.71590e-03
   268.110      8.50850e+02      1.31440e-01      6.72040e-04
   268.160      8.48580e+02      8.78850e-02      1.95810e-05
   268.210      8.45480e+02      2.04060e-02     -8.39830e-04
   268.260      8.44880e+02      1.15600e-02     -2.19710e-03
   268.310      8.37910e+02      9.56110e-02     -5.90930e-04
   268.360      8.29300e+02      1.64670e-01      1.61580e-03
   268.410      8.26400e+02      1.19190e-01      9.50650e-05
   268.460      8.26020e+02      5.34210e-02     -1.58990e-03
   268.510      8.24020e+02      7.21430e-02     -3.54890e-04
   268.560      8.22880e+02      6.83850e-02     -1.05780e-03
   268.610      8.17340e+02      8.19630e-02      6.99070e-04
   268.660      8.14950e+02      9.42330e-02      7.83570e-04
   268.710      8.12670e+02      7.94980e-02     -2.49210e-05
   268.760      8.10600e+02      1.00380e-01      1.05950e-03
   268.810      8.08370e+02      1.08400e-01      8.11750e-04
   268.860      8.04080e+02      1.05840e-01      9.21800e-04
   268.910      8.03030e+02      9.45330e-02     -2.60790e-04
   268.960      7.98800e+02      1.11280e-01      3.58500e-04
   269.010      7.98030e+02      9.03160e-02      1.88620e-04
   269.060      7.98540e+02      2.22890e-02     -2.09980e-03
   269.110      7.93050e+02      1.26880e-01      7.52110e-04
   269.160      7.92720e+02      9.63340e-02      9.65620e-04
   269.210      7.98630e+02     -3.01540e-02     -1.67850e-03
   269.260      7.99270e+02     -4.32280e-02     -1.77350e-03
   269.310      8.00880e+02     -2.76480e-02     -2.11220e-03
   269.360      8.01900e+02      8.10970e-03     -1.20090e-03
   269.410      8.07260e+02     -7.33570e-02     -2.08170e-03
   269.460      8.08650e+02     -3.82970e-02     -1.16030e-03
   269.510      8.11150e+02     -1.00190e-01     -2.03020e-03
   269.560      8.14050e+02     -7.73210e-02     -1.74220e-03
   269.610      8.11230e+02     -2.32950e-02      5.16920e-04
   269.660      8.10750e+02     -5.14360e-02      8.50270e-04
   269.710      8.05120e+02      1.20260e-01      4.05120e-03
   269.760      8.05100e+02      2.97530e-02      2.09820e-03
   269.810      8.07240e+02      6.55610e-02      6.22940e-04
   269.860      7.95460e+02      1.79410e-01      3.70350e-03
   269.910      7.90130e+02      2.06920e-01      4.87800e-03
   269.960      7.90130e+02      1.37140e-01      2.39670e-03
   270.010      7.87320e+02      5.96560e-02      1.01700e-03
   270.060      7.83440e+02      1.11620e-01      1.34890e-03
   270.110      7.82640e+02      5.89530e-02     -2.62970e-04
   270.160      7.78460e+02      5.25970e-02     -7.92080e-04
   270.210      7.69680e+02      1.21140e-01      1.14860e-03
   270.260      7.68430e+02      1.35560e-01      1.30620e-03
   270.310      7.63850e+02      1.92630e-01      3.40770e-03
   270.360      7.58160e+02      2.84900e-01      3.03220e-03
   270.410      7.58130e+02      1.19990e-01      1.52240e-03
   270.460      7.57130e+02      5.81120e-02     -8.95670e-04
   270.510      7.55940e+02      1.85470e-02     -2.11510e-03
   270.560      7.49190e+02      1.49890e-01      4.56300e-04
   270.610      7.47410e+02      1.23450e-01      2.16510e-04
   270.660      7.46320e+02      5.07880e-02     -1.02410e-03
   270.710      7.45080e+02      4.01030e-02     -1.61080e-03
   270.760      7.37720e+02      1.57200e-01      1.25460e-03
   270.810      7.36570e+02      9.61310e-02      1.60380e-03
   270.860      7.39920e+02     -4.65580e-03     -1.07620e-03
   270.910      7.34370e+02      9.18370e-02     -5.57400e-04
   270.960      7.30510e+02      1.12650e-01      1.07070e-03
   271.010      7.30710e+02      1.44150e-01      1.49990e-03
   271.060      7.31150e+02      1.67060e-01      3.60170e-04
   271.110      7.29270e+02      1.59200e-01      1.57390e-03
   271.160      7.26000e+02      8.31830e-02      8.92120e-04
   271.210      7.27050e+02      6.36540e-02     -2.56790e-04
   271.260      7.21930e+02      1.49280e-01      2.19700e-03
   271.310      7.21590e+02      6.31590e-02      9.60010e-04
   271.360      7.19400e+02      6.13870e-02      2.64270e-04
   271.410      7.15530e+02      1.72930e-01      2.98720e-03
   271.460      7.21110e+02      5.66550e-02     -5.24990e-04
   271.510      7.18270e+02      8.68710e-03     -1.17420e-04
   271.560      7.18980e+02      5.56080e-02     -8.69930e-04
   271.610      7.18450e+02      3.84670e-02     -5.75850e-04
   271.660      7.17310e+02      6.19780e-02      6.01790e-04
   271.710      7.17980e+02      1.14800e-01      8.77730e-04
   271.760      7.16710e+02      5.85680e-02      8.04860e-04
   271.810      7.15450e+02      2.86100e-02      8.42590e-04
   271.860      7.12940e+02      7.04400e-02      1.28300e-03
   271.910      7.07470e+02      1.88600e-01      4.09690e-03
   271.960      7.07230e+02      5.96550e-02      7.47350e-04
   272.010      7.03740e+02      1.90320e-01      3.52640e-03
   272.060      7.04470e+02      8.33580e-02      1.45870e-03
   272.110      6.97800e+02      1.37000e-01      2.15190e-03
   272.160      6.94520e+02      8.70610e-02      1.37830e-03
   272.210      6.90520e+02      1.56330e-01      1.46840e-03
   272.260      6.85940e+02      2.09800e-01      2.90520e-03
   272.310      6.84800e+02      2.69670e-01      3.28460e-03
   272.360      6.82280e+02      2.05920e-01      3.06580e-03
   272.410      6.81970e+02      1.81740e-01      2.46730e-03
   272.460      6.79900e+02      2.28480e-01      2.46790e-03
   272.510      6.80020e+02      1.28950e-01      8.34600e-04
   272.560      6.81130e+02      8.68650e-02     -2.05920e-04
   272.610      6.77170e+02      1.46100e-01      1.20840e-03
   272.660      6.72640e+02      3.26190e-02     -7.38280e-04
   272.710      6.69430e+02      2.05270e-01      1.65100e-03
   272.760      6.66820e+02      1.59590e-01      1.59980e-03
   272.810      6.66540e+02      1.40990e-01      7.04700e-04
   272.860      6.64240e+02      1.52010e-01      1.22950e-03
   272.910      6.64730e+02      6.85300e-02     -2.34520e-03
   272.960      6.65210e+02      7.04670e-02     -9.47010e-04
   273.010      6.63410e+02      1.20560e-01     -4.42490e-04
   273.060      6.61650e+02      8.13940e-02      4.26650e-04
   273.110      6.59980e+02      3.91710e-02     -6.19640e-04
   273.160      6.60810e+02     -3.12440e-02     -2.06690e-03
   273.210      6.57190e+02      3.31380e-02     -1.08190e-03
   273.260      6.53600e+02      7.92190e-02      1.38130e-04
   273.310      6.52140e+02      7.40910e-02     -7.49930e-04
   273.360      6.42550e+02      2.16660e-01      3.15680e-03
   273.410      6.36490e+02      2.01800e-01      4.03970e-03
   273.460      6.39230e+02      1.46800e-01      1.25120e-04
   273.510      6.33310e+02      2.86210e-01      3.78610e-03
   273.560      6.31300e+02      2.46320e-01      3.26820e-03
   273.610      6.29460e+02      2.38390e-01      2.36120e-03
   273.660      6.27390e+02      7.21180e-02     -2.02330e-04
   273.710      6.22360e+02      1.75050e-01      1.03100e-03
   273.760      6.21960e+02      2.04680e-01      1.13120e-03
   273.810      6.19240e+02      1.57640e-01      8.81310e-04
   273.860      6.14420e+02      1.80140e-01      6.29700e-04
   273.910      6.09400e+02      1.54570e-01      1.08490e-03
   273.960      6.07180e+02      1.61880e-01      5.34850e-04
   274.010      6.03870e+02      1.61800e-01      1.38540e-03
   274.060      6.03930e+02      7.72400e-02     -1.74970e-03
   274.110      5.99730e+02      1.25180e-01     -5.21620e-04
   274.160      5.93930e+02      1.70120e-01      1.55450e-04
   274.210      5.92080e+02      1.67780e-01      7.59990e-04
   274.260      5.94220e+02      6.64380e-02     -2.63170e-03
   274.310      5.88640e+02      1.70720e-01      7.23660e-04
   274.360      5.92190e+02      3.77010e-02     -1.97570e-03
   274.410      5.89310e+02      1.16060e-01     -4.25180e-05
   274.460      5.87700e+02      1.61890e-01      6.31190e-04
   274.510      5.92360e+02      5.13060e-02     -1.74030e-03
   274.560      5.89460e+02      9.81420e-02      1.53710e-05
   274.610      5.91440e+02      8.94440e-02      3.60640e-04
   274.660      5.91040e+02      8.00140e-02      3.43970e-04
   274.710      5.90820e+02      1.29890e-01      1.27330e-03
   274.760      5.91410e+02      3.90830e-02     -1.28070e-03
   274.810      5.91950e+02      3.63270e-02     -1.40060e-03
   274.860      5.88920e+02      1.36680e-01      1.31570e-03
   274.910      5.85210e+02      1.04800e-01      3.71490e-04
   274.960      5.84720e+02      8.11840e-02     -1.78410e-04
   275.010      5.82270e+02      1.14270e-01      9.94680e-04
   275.060      5.79590e+02      1.02920e-01      7.89160e-04
   275.110      5.77570e+02      4.84810e-02     -7.44790e-04
   275.160      5.74900e+02      8.76550e-02     -1.83570e-04
   275.210      5.69690e+02      1.15330e-01      4.19140e-04
   275.260      5.67780e+02      1.49750e-01      1.30330e-03
   275.310      5.65900e+02      1.52000e-01      6.09460e-04
   275.360      5.61330e+02      1.35440e-01      6.57700e-04
   275.410      5.58710e+02      1.85230e-01      9.07700e-04
   275.460      5.56470e+02      1.60960e-01      1.57720e-04
   275.510      5.55830e+02      1.26770e-01      2.75760e-04
   275.560      5.51370e+02      1.42920e-01      5.53700e-04
   275.610      5.47700e+02      1.64780e-01      1.77020e-03
   275.660      5.47220e+02      9.77250e-02     -7.01810e-04
   275.710      5.44470e+02      1.09670e-01     -8.99340e-04
   275.760      5.41490e+02      1.39890e-01      1.15170e-05
   275.810      5.42660e+02      5.31280e-02     -2.20200e-03
   275.860      5.40330e+02      1.52750e-01     -4.60560e-04
   275.910      5.36800e+02      1.11700e-01      1.02060e-04
   275.960      5.36030e+02      1.31030e-01      7.62370e-05
   276.010      5.36170e+02      1.10610e-01      4.02200e-04
   276.060      5.36930e+02      8.29420e-02     -7.15320e-04
   276.110      5.37230e+02      3.35790e-02     -1.22330e-03
   276.160      5.35780e+02      2.83680e-02     -1.47390e-03
   276.210      5.33910e+02      7.38250e-02     -1.18110e-03
   276.260      5.29930e+02      1.45350e-01      5.59080e-04
   276.310      5.27880e+02      1.35790e-01      5.63140e-04
   276.360      5.26350e+02      1.17930e-01      2.90150e-04
   276.410      5.24280e+02      5.16500e-02     -5.39430e-04
   276.460      5.16730e+02      1.61830e-01      1.43580e-03
   276.510      5.15310e+02      1.42890e-01      9.16640e-04
   276.560      5.13840e+02      1.53790e-01      9.06020e-04
   276.610      5.12650e+02      1.27560e-01     -1.21070e-04
   276.660      5.11360e+02      1.01710e-01      1.84240e-04
   276.710      5.09240e+02      1.18170e-01      4.26520e-04
   276.760      5.09200e+02      7.23390e-02     -2.02650e-04
   276.810      5.05600e+02      1.14680e-01      1.09070e-03
   276.860      5.04010e+02      1.13320e-01      4.37170e-04
   276.910      5.02500e+02      1.32300e-01      9.54410e-05
   276.960      5.00810e+02      1.09370e-01      3.12940e-04
   277.010      5.01480e+02      9.10160e-02     -3.96540e-04
   277.060      5.00210e+02      8.30650e-02      7.31860e-05
   277.110      4.99630e+02      8.68520e-02     -6.12600e-04
   277.160      4.97490e+02      9.56960e-02      2.45360e-04
   277.210      4.99000e+02      6.28940e-02     -8.34320e-04
   277.260      4.95970e+02      1.02090e-01      7.26360e-04
   277.310      4.95400e+02      9.27370e-02     -2.18730e-04
   277.360      4.93810e+02      1.33600e-01      5.15810e-04
   277.410      4.90630e+02      1.00590e-01      5.05340e-04
   277.460      4.89000e+02      1.28570e-01      4.15120e-05
   277.510      4.86340e+02      1.36620e-01      5.84390e-04
   277.560      4.83300e+02      1.66190e-01      1.62540e-03
   277.610      4.80140e+02      1.69620e-01      1.44200e-03
   277.660      4.75220e+02      1.84680e-01      1.78540e-03
   277.710      4.72800e+02      1.61490e-01      1.36870e-03
   277.760      4.71200e+02      1.68110e-01      1.31210e-03
   277.810      4.69490e+02      1.51970e-01      6.31040e-04
   277.860      4.66020e+02      1.63110e-01      1.52580e-03
   277.910      4.63500e+02      1.69740e-01      1.59820e-04
   277.960      4.62510e+02      1.29410e-01     -1.89260e-04
   278.010      4.59520e+02      1.67360e-01      1.41890e-03
   278.060      4.61800e+02      7.22780e-02     -1.76860e-03
   278.110      4.57600e+02      1.21590e-01      1.53060e-05
   278.160      4.56290e+02      1.26660e-01     -5.71990e-04
   278.210      4.55250e+02      8.27920e-02     -1.15260e-03
   278.260      4.52740e+02      1.55620e-01      5.77980e-04
   278.310      4.51570e+02      1.13040e-01      1.56190e-04
   278.360      4.50050e+02      1.00470e-01      2.41880e-04
   278.410      4.48150e+02      1.01580e-01      6.24620e-05
   278.460      4.48410e+02      8.51820e-02     -5.96540e-04
   278.510      4.45360e+02      1.22170e-01      4.59460e-04
   278.560      4.44070e+02      1.35880e-01      2.01770e-04
   278.610      4.40180e+02      1.88870e-01      1.53940e-03
   278.660      4.40740e+02      1.09490e-01     -2.10550e-04
   278.710      4.40290e+02      1.16640e-01     -8.74960e-04
   278.760      4.38440e+02      5.48740e-02     -9.35050e-04
   278.810      4.32440e+02      1.69070e-01      1.65370e-03
   278.860      4.29850e+02      1.52470e-01      1.69910e-03
   278.910      4.26700e+02      1.92150e-01      1.68020e-03
   278.960      4.24730e+02      1.57150e-01      1.13440e-03
   279.010      4.26310e+02      7.50860e-02     -9.51910e-04
   279.060      4.21750e+02      1.36390e-01      3.78070e-04
   279.110      4.17460e+02      1.90870e-01      1.91310e-03
   279.160      4.16410e+02      1.74090e-01      1.31030e-03
   279.210      4.14380e+02      1.85160e-01      1.50390e-03
   279.260      4.12550e+02      1.75300e-01      1.64720e-03
   279.310      4.13140e+02      1.48210e-01      7.11070e-04
   279.360      4.12440e+02      1.44860e-01      9.70600e-04
   279.410      4.13710e+02      6.87370e-02     -8.38500e-04
   279.460      4.10460e+02      1.51690e-01      8.15900e-04
   279.510      4.13000e+02      6.65750e-02     -1.07790e-03
   279.560      4.11780e+02      7.80400e-02     -8.73210e-04
   279.610      4.09640e+02      8.88410e-02     -5.56060e-04
   279.660      4.07460e+02      1.24700e-01      8.05430e-04
   279.710      4.08440e+02      1.00360e-01     -4.61880e-04
   279.760      4.06010e+02      1.18290e-01      6.87400e-04
   279.810      4.06650e+02      1.01680e-01     -7.65610e-04
   279.860      4.02170e+02      1.72490e-01      1.19100e-03
   279.910      4.02120e+02      1.27210e-01     -2.71570e-04
   279.960      3.96260e+02      1.49100e-01      1.17850e-03
   280.010      3.98840e+02      1.17580e-02     -3.53480e-03
   280.060      3.92980e+02      6.94240e-02     -1.96790e-03
   280.110      3.91740e+02      5.28000e-02     -3.12250e-03
   280.160      3.88170e+02      6.62550e-02     -2.97600e-03
   280.210      3.83250e+02      1.02050e-01     -2.04310e-03
   280.260      3.81540e+02      8.74290e-02     -2.17890e-03
   280.310      3.79770e+02      8.79790e-02     -2.26420e-03
   280.360      3.76930e+02      1.04040e-01     -1.82840e-03
   280.410      3.74210e+02      8.42290e-02     -1.97490e-03
   280.460      3.72780e+02      9.57800e-02     -2.02610e-03
   280.510      3.70090e+02      1.40480e-01     -8.54970e-04
   280.560      3.71490e+02      8.57640e-02     -2.34610e-03
   280.610      3.69490e+02      8.34730e-02     -2.31710e-03
   280.660      3.67310e+02      9.06740e-02     -1.70630e-03
   280.710      3.67020e+02      7.68660e-02     -1.78240e-03
   280.760      3.66000e+02      7.61990e-02     -1.63190e-03
   280.810      3.65930e+02      9.06110e-02     -1.59050e-03
   280.860      3.65720e+02      4.34900e-02     -2.15520e-03
   280.910      3.65060e+02      4.62890e-02     -2.18900e-03
   280.960      3.64610e+02      8.60080e-03     -2.96180e-03
   281.010      3.62410e+02      4.49580e-02     -1.88760e-03
   281.060      3.60620e+02      6.70860e-02     -1.84470e-03
   281.110      3.58570e+02      7.42310e-02     -1.82470e-03
   281.160      3.55410e+02      6.45030e-02     -2.05370e-03
   281.210      3.53210e+02      7.62850e-02     -1.96980e-03
   281.260      3.50330e+02      8.31300e-02     -1.82980e-03
   281.310      3.47660e+02      8.76380e-02     -1.88730e-03
   281.360      3.44420e+02      8.45880e-02     -2.15920e-03
   281.410      3.39290e+02      1.15520e-01     -1.67450e-03
   281.460      3.36130e+02      1.36410e-01     -9.46500e-04
   281.510      3.35210e+02      1.21550e-01     -1.60120e-03
   281.560      3.33060e+02      1.10920e-01     -1.60190e-03
   281.610      3.30340e+02      1.45120e-01     -1.06970e-03
   281.660      3.29060e+02      9.44440e-02     -1.81360e-03
   281.710      3.27320e+02      1.10090e-01     -1.73220e-03
   281.760      3.25800e+02      1.08160e-01     -1.58530e-03
   281.810      3.23310e+02      1.37160e-01     -7.43550e-04
   281.860      3.22350e+02      1.09890e-01     -1.09290e-03
   281.910      3.20930e+02      1.21100e-01     -7.62340e-04
   281.960      3.20210e+02      1.15550e-01     -6.99490e-04
   282.010      3.20000e+02      1.06320e-01     -8.75780e-04
   282.060      3.19450e+02      1.13350e-01     -6.06020e-04
   282.110      3.19000e+02      1.09840e-01     -5.18810e-04
   282.160      3.18690e+02      1.02760e-01     -7.01550e-04
   282.210      3.18240e+02      9.73020e-02     -8.11590e-04
   282.260      3.17400e+02      9.15190e-02     -8.82000e-04
   282.310      3.16280e+02      8.74740e-02     -9.25960e-04
   282.360      3.13310e+02      1.12040e-01     -3.75760e-04
   282.410      3.13100e+02      6.83460e-02     -1.48600e-03
   282.460      3.10690e+02      8.49690e-02     -1.24610e-03
   282.510      3.08490e+02      8.94110e-02     -1.07230e-03
   282.560      3.06820e+02      9.38580e-02     -1.07700e-03
   282.610      3.05040e+02      1.11880e-01     -1.18760e-03
   282.660      3.03530e+02      9.57700e-02     -1.11540e-03
   282.710      3.00930e+02      1.09780e-01     -7.21900e-04
   282.760      3.00850e+02      1.07220e-01     -1.01840e-03
   282.810      2.99850e+02      1.04790e-01     -1.00610e-03
   282.860      2.98530e+02      1.09370e-01     -7.25170e-04
   282.910      2.97750e+02      9.60730e-02     -7.37260e-04
   282.960      2.97080e+02      1.02950e-01     -2.93330e-04
   283.010      2.96550e+02      1.11240e-01     -2.70390e-04
   283.060      2.96630e+02      9.57980e-02     -3.41470e-04
   283.110      2.96910e+02      8.60770e-02     -3.21310e-04
   283.159      2.97330e+02      9.91940e-02     -2.29060e-04
   283.209      2.97350e+02      1.00370e-01      1.56920e-04
   283.259      2.97870e+02      6.75810e-02     -3.42010e-04
   283.309      2.98370e+02      7.88860e-02     -3.12430e-04
   283.359      2.97210e+02      7.05630e-02     -2.44060e-04
   283.409      2.95930e+02      7.35870e-02     -7.95680e-04
   283.459      2.93600e+02      6.40140e-02     -8.90970e-04
   283.509      2.91200e+02      1.10210e-01      1.17210e-05
   283.559      2.89090e+02      1.08690e-01     -1.63600e-04
   283.609      2.86860e+02      9.36850e-02     -9.06360e-04
   283.659      2.82890e+02      1.29550e-01     -2.55390e-04
   283.709      2.80600e+02      1.20080e-01     -5.98530e-04
   283.759      2.78170e+02      1.43160e-01     -7.22970e-05
   283.809      2.76890e+02      1.10840e-01     -1.06010e-03
   283.859      2.72070e+02      1.45340e-01     -1.63440e-04
   283.909      2.70940e+02      1.19330e-01     -1.07810e-03
   283.959      2.67720e+02      1.40780e-01     -5.27120e-04
   284.009      2.67070e+02      1.13800e-01     -1.12880e-03
   284.059      2.65250e+02      1.23020e-01     -1.01980e-03
   284.109      2.63130e+02      1.43650e-01     -5.60830e-04
   284.159      2.60540e+02      1.55300e-01      8.23020e-05
   284.209      2.61130e+02      1.25550e-01     -7.76890e-04
   284.259      2.59940e+02      1.31750e-01     -3.43850e-04
   284.309      2.59430e+02      1.33990e-01     -2.28960e-04
   284.359      2.58410e+02      1.20520e-01     -3.91340e-04
   284.409      2.56610e+02      1.19620e-01     -2.64440e-04
   284.459      2.55670e+02      1.21600e-01     -2.34610e-04
   284.509      2.55160e+02      1.21910e-01     -4.78000e-04
   284.559      2.53000e+02      1.32220e-01     -2.30210e-05
   284.609      2.51300e+02      1.35640e-01      2.94300e-05
   284.659      2.51190e+02      1.24480e-01     -1.49660e-04
   284.709      2.50320e+02      1.21190e-01     -1.60180e-04
   284.759      2.49320e+02      1.35600e-01      7.53930e-05
   284.809      2.47240e+02      1.25630e-01      3.49200e-05
   284.859      2.47380e+02      8.94080e-02     -7.80640e-04
   284.909      2.44450e+02      1.02360e-01     -3.58710e-04
   284.959      2.43730e+02      1.20740e-01     -2.33100e-04
   285.009      2.38940e+02      1.87580e-01      1.28220e-03
   285.059      2.36790e+02      1.88010e-01      1.39890e-03
   285.109      2.33440e+02      2.16460e-01      2.11780e-03
   285.159      2.32090e+02      2.05320e-01      1.67720e-03
   285.209      2.30260e+02      1.76440e-01      1.27620e-03
   285.259      2.29720e+02      1.48680e-01      6.32970e-04
   285.309      2.27520e+02      1.62820e-01      1.07470e-03
   285.359      2.26460e+02      1.61690e-01      8.46510e-04
   285.409      2.25510e+02      1.67640e-01      9.71270e-04
   285.459      2.23460e+02      1.91140e-01      1.48300e-03
   285.509      2.23980e+02      1.46250e-01      7.47970e-04
   285.559      2.23830e+02      1.36380e-01      5.62300e-04
   285.609      2.23610e+02      1.30960e-01      4.96800e-04
   285.659      2.22850e+02      1.20720e-01      6.25580e-04
   285.709      2.22730e+02      1.25060e-01      6.82130e-04
   285.759      2.22820e+02      1.18690e-01      4.64430e-04
   285.809      2.20960e+02      1.32980e-01      9.97950e-04
   285.859      2.20740e+02      1.40920e-01      8.45420e-04
   285.909      2.19540e+02      1.15720e-01      5.79930e-04
   285.959      2.17070e+02      1.49970e-01      1.53310e-03
   286.009      2.17890e+02      1.18570e-01      6.40360e-04
   286.059      2.16940e+02      1.30240e-01      6.99230e-04
   286.109      2.15590e+02      1.17570e-01      6.31270e-04
   286.159      2.14240e+02      1.13130e-01      3.39130e-04
   286.209      2.13230e+02      1.28560e-01      4.99330e-04
   286.259      2.12260e+02      1.28850e-01      5.91770e-04
   286.309      2.11040e+02      1.14940e-01      4.75600e-04
   286.359      2.09630e+02      1.31590e-01      5.95870e-04
   286.409      2.08280e+02      1.17210e-01      3.73200e-04
   286.459      2.06720e+02      1.23290e-01      4.83070e-04
   286.509      2.05860e+02      1.39510e-01      6.81510e-04
   286.559      2.05190e+02      1.24110e-01      2.58760e-04
   286.609      2.03960e+02      1.23270e-01      1.53880e-04
   286.659      2.02270e+02      1.33870e-01      4.68330e-04
   286.709      2.01600e+02      9.89100e-02     -1.43470e-04
   286.759      2.00560e+02      1.17800e-01      3.12340e-04
   286.809      1.99880e+02      1.18940e-01      3.34320e-04
   286.859      1.98230e+02      1.42670e-01      7.43640e-04
   286.909      1.97990e+02      1.15400e-01      3.18930e-04
   286.959      1.97460e+02      1.31730e-01      7.43890e-04
   287.009      1.97020e+02      1.14560e-01      5.44780e-04
   287.059      1.96890e+02      1.03900e-01      6.78720e-05
   287.109      1.95790e+02      1.09850e-01      3.56270e-04
   287.159      1.94030e+02      1.11100e-01      5.62550e-04
   287.209      1.93710e+02      1.06260e-01      3.94120e-04
   287.259      1.92990e+02      9.90530e-02      1.71140e-04
   287.309      1.91680e+02      1.13840e-01      3.95580e-04
   287.359      1.89350e+02      1.25860e-01      7.13360e-04
   287.409      1.87900e+02      1.22750e-01      4.36020e-04
   287.459      1.85940e+02      1.26510e-01      4.85910e-04
   287.509      1.85920e+02      1.12690e-01      4.01290e-05
   287.559      1.83930e+02      1.07960e-01     -8.33120e-05
   287.609      1.81380e+02      1.30830e-01      3.41090e-04
   287.659      1.79270e+02      1.30620e-01      2.98090e-04
   287.709      1.79330e+02      9.72490e-02     -4.77340e-04
   287.759      1.76280e+02      1.43860e-01      5.91650e-04
   287.809      1.75250e+02      1.43060e-01      4.65430e-04
   287.859      1.73540e+02      1.46320e-01      5.48460e-04
   287.909      1.72020e+02      1.49740e-01      5.89520e-04
   287.959      1.70720e+02      1.57150e-01      8.74380e-04
   288.009      1.71960e+02      1.04720e-01     -4.52120e-04
   288.059      1.69960e+02      1.26600e-01      6.64970e-05
   288.109      1.68970e+02      1.23510e-01      1.20910e-04
   288.159      1.67150e+02      1.41000e-01      4.89460e-04
   288.209      1.66220e+02      1.38220e-01      4.89440e-04
   288.259      1.65680e+02      1.37110e-01      4.64570e-04
   288.309      1.65790e+02      1.13020e-01     -1.48070e-05
   288.359      1.63950e+02      1.34670e-01      6.25120e-04
   288.409      1.63680e+02      1.22260e-01      3.57500e-04
   288.459      1.62760e+02      1.33340e-01      6.68800e-04
   288.509      1.63140e+02      1.20700e-01      7.35080e-05
   288.559      1.62390e+02      9.89180e-02     -1.63160e-04
   288.609      1.60910e+02      1.26360e-01      4.54170e-04
   288.659      1.59930e+02      1.26420e-01      3.64570e-04
   288.709      1.59360e+02      1.25600e-01      3.51890e-04
   288.759      1.59290e+02      1.07710e-01     -6.82400e-05
   288.809      1.57370e+02      1.11780e-01      2.85280e-04
   288.859      1.56460e+02      1.20010e-01      3.05750e-04
   288.909      1.54990e+02      1.29460e-01      5.66540e-04
   288.959      1.54810e+02      1.07220e-01     -6.61200e-06
   289.009      1.54210e+02      1.33440e-01      4.65880e-04
   289.059      1.52820e+02      1.20450e-01      5.58660e-04
   289.109      1.52150e+02      1.07750e-01      1.91090e-04
   289.159      1.51060e+02      1.02610e-01      1.70730e-04
   289.209      1.50550e+02      1.00400e-01      4.63760e-05
   289.259      1.49670e+02      1.02160e-01      2.78810e-04
   289.309      1.48790e+02      1.11990e-01      3.00440e-04
   289.359      1.48760e+02      6.86810e-02     -7.04460e-04
   289.409      1.46180e+02      1.18630e-01      5.60330e-04
   289.459      1.45820e+02      1.08660e-01      1.72710e-04
   289.509      1.44900e+02      1.03970e-01      5.84060e-05
   289.559      1.43500e+02      1.21140e-01      4.18170e-04
   289.609      1.42040e+02      1.26300e-01      6.37930e-04
   289.659      1.41800e+02      1.07690e-01      1.93700e-04
   289.709      1.40820e+02      1.06230e-01      1.53680e-04
   289.759      1.41100e+02      9.21740e-02     -1.68490e-04
   289.809      1.39780e+02      1.09170e-01      2.44820e-04
   289.859      1.39640e+02      9.62510e-02     -1.81820e-05
   289.909      1.38540e+02      1.15710e-01      4.58940e-04
   289.959      1.38280e+02      1.04530e-01      1.96850e-04
   290.009      1.37800e+02      1.04050e-01      2.81680e-04
   290.059      1.36640e+02      1.02800e-01      3.08740e-04
   290.109      1.36020e+02      8.65420e-02      7.02760e-05
   290.159      1.34780e+02      1.22650e-01      5.58720e-04
   290.209      1.34340e+02      1.08410e-01      3.80880e-04
   290.259      1.34180e+02      9.33220e-02      8.65150e-05
   290.309      1.33220e+02      9.77640e-02      3.06950e-04
   290.359      1.32810e+02      9.83970e-02      2.21680e-04
   290.409      1.32270e+02      1.01410e-01      2.29320e-04
   290.459      1.31830e+02      9.61150e-02      5.96180e-05
   290.509      1.31530e+02      8.68260e-02     -6.49620e-05
   290.559      1.30780e+02      9.63580e-02      1.79020e-04
   290.609      1.30260e+02      9.10610e-02     -6.70560e-05
   290.659      1.28970e+02      9.36740e-02      1.89910e-04
   290.709      1.28590e+02      8.82400e-02     -9.26780e-05
   290.759      1.27900e+02      8.76360e-02      6.39310e-05
   290.809      1.27110e+02      9.17310e-02      6.15780e-05
   290.859      1.26350e+02      9.59350e-02      2.01970e-04
   290.909      1.25450e+02      8.35310e-02     -6.94680e-05
   290.959      1.24690e+02      9.30790e-02      6.35880e-05
   291.009      1.23810e+02      9.04770e-02      9.16870e-06
   291.059      1.22790e+02      9.59560e-02      2.41590e-04
   291.109      1.21980e+02      8.71390e-02     -6.35980e-05
   291.159      1.21200e+02      9.98280e-02      3.90330e-05
   291.209      1.19820e+02      9.40840e-02      1.40380e-04
   291.258      1.19510e+02      9.29890e-02      6.76160e-05
   291.308      1.18290e+02      1.03620e-01      3.12250e-04
   291.358      1.17400e+02      1.01970e-01      1.76720e-04
   291.408      1.15990e+02      9.89470e-02      2.06590e-04
   291.458      1.15330e+02      1.00130e-01      1.01290e-04
   291.508      1.14320e+02      9.57720e-02      9.20640e-05
   291.558      1.13150e+02      1.01980e-01      3.09800e-04
   291.608      1.12130e+02      1.01650e-01      1.35600e-04
   291.658      1.10870e+02      1.09270e-01      2.86980e-04
   291.708      1.10120e+02      1.10220e-01      3.03400e-04
   291.758      1.09810e+02      1.05830e-01      2.53530e-04
   291.808      1.09320e+02      1.01760e-01      1.84210e-04
   291.858      1.08560e+02      1.08500e-01      3.04520e-04
   291.908      1.07620e+02      1.02960e-01      2.53590e-04
   291.958      1.07220e+02      9.66190e-02      6.98230e-05
   292.008      1.06700e+02      1.06640e-01      3.44710e-04
   292.058      1.06250e+02      1.07310e-01      3.20020e-04
   292.108      1.05360e+02      1.01460e-01      2.24150e-04
   292.158      1.04590e+02      1.01040e-01      1.97060e-04
   292.208      1.03730e+02      1.04540e-01      4.14360e-04
   292.258      1.03830e+02      9.43750e-02      5.01350e-06
   292.308      1.03140e+02      9.75310e-02      2.84070e-04
   292.358      1.02900e+02      1.02810e-01      3.08560e-04
   292.408      1.02690e+02      9.11760e-02      1.43640e-04
   292.458      1.02010e+02      1.01150e-01      4.28420e-04
   292.508      1.02050e+02      9.35950e-02      2.55290e-04
   292.558      1.01600e+02      8.85610e-02      2.41580e-04
   292.608      1.01270e+02      9.32440e-02      3.36150e-04
   292.658      1.00630e+02      9.01460e-02      3.37010e-04
   292.708      1.00280e+02      9.00690e-02      2.44410e-04
   292.758      9.97300e+01      8.69380e-02      3.09850e-04
   292.808      9.91800e+01      8.62310e-02      2.46830e-04
   292.858      9.83700e+01      8.76190e-02      2.21920e-04
   292.908      9.75900e+01      8.42620e-02      8.37540e-05
   292.958      9.68100e+01      8.78040e-02      1.81930e-04
   293.008      9.64500e+01      8.17020e-02     -9.42490e-05
   293.058      9.53800e+01      8.92560e-02      3.23760e-04
   293.108      9.47600e+01      8.98110e-02      2.24090e-04
   293.158      9.40000e+01      9.94570e-02      2.65620e-04
   293.208      9.31800e+01      8.32970e-02      1.09390e-05
   293.258      9.26400e+01      9.10720e-02      1.70780e-04
   293.308      9.20000e+01      8.85420e-02      1.10540e-04
   293.358      9.09100e+01      8.91300e-02      2.43840e-04
   293.408      9.01200e+01      9.26560e-02      2.14460e-04
   293.458      8.91300e+01      9.10830e-02      2.24560e-04
   293.508      8.90000e+01      8.57110e-02     -7.67170e-05
   293.558      8.82300e+01      9.69430e-02      1.54880e-04
   293.608      8.72900e+01      9.57110e-02      2.39280e-04
   293.658      8.61600e+01      9.35480e-02      3.57620e-04
   293.708      8.57000e+01      8.74960e-02      1.48100e-04
   293.758      8.53000e+01      9.08960e-02      1.81560e-04
   293.808      8.48400e+01      9.65130e-02      3.53410e-04
   293.858      8.43500e+01      9.20590e-02      2.52840e-04
   293.908      8.37900e+01      9.13410e-02      3.16260e-04
   293.958      8.35400e+01      9.06160e-02      3.79360e-04
   294.008      8.35700e+01      8.65780e-02      2.13240e-04
   294.058      8.32700e+01      9.15190e-02      3.26230e-04
   294.108      8.27500e+01      8.73070e-02      3.48370e-04
   294.158      8.23700e+01      8.18410e-02      2.94350e-04
   294.208      8.18000e+01      9.70480e-02      5.39900e-04
   294.258      8.17200e+01      9.36620e-02      3.57300e-04
   294.308      8.09300e+01      8.24100e-02      2.26310e-04
   294.358      8.05200e+01      8.62240e-02      2.69920e-04
   294.408      8.01600e+01      8.71690e-02      2.97200e-04
   294.458      7.96400e+01      9.15760e-02      5.27450e-04
   294.508      7.94700e+01      8.47160e-02      2.85970e-04
   294.558      7.90700e+01      8.36310e-02      2.56790e-04
   294.608      7.83900e+01      8.19500e-02      1.81000e-04
   294.658      7.79800e+01      8.30300e-02      1.83830e-04
   294.708      7.72300e+01      9.12520e-02      4.52280e-04
   294.758      7.69300e+01      9.02850e-02      4.23390e-04
   294.808      7.62700e+01      8.61560e-02      4.36570e-04
   294.858      7.60400e+01      9.31100e-02      4.06890e-04
   294.908      7.52800e+01      8.43800e-02      2.62170e-04
   294.958      7.48700e+01      8.97180e-02      4.07450e-04
   295.008      7.41200e+01      9.56880e-02      5.55910e-04
   295.058      7.35700e+01      8.54530e-02      3.66570e-04
   295.108      7.29400e+01      9.29220e-02      4.62130e-04
   295.158      7.22600e+01      9.30790e-02      3.58990e-04
   295.208      7.13200e+01      9.82830e-02      5.94670e-04
   295.258      7.08400e+01      8.95220e-02      5.12220e-04
   295.308      7.04100e+01      8.41500e-02      2.57170e-04
   295.358      6.99100e+01      8.23790e-02      1.11080e-04
   295.408      6.90800e+01      9.63790e-02      3.99680e-04
   295.458      6.84700e+01      8.65370e-02      2.77420e-04
   295.508      6.82700e+01      9.96390e-02      4.45310e-04
   295.558      6.78000e+01      9.14240e-02      3.34760e-04
   295.608      6.74300e+01      8.51020e-02      3.08480e-04
   295.658      6.71100e+01      8.48710e-02      3.26860e-04
   295.708      6.66900e+01      8.44520e-02      3.84260e-04
   295.758      6.63900e+01      7.64540e-02      3.04750e-04
   295.808      6.59700e+01      8.35990e-02      3.96350e-04
   295.858      6.56900e+01      8.63110e-02      3.55150e-04
   295.908      6.50400e+01      8.46350e-02      3.35300e-04
   295.958      6.43600e+01      8.68720e-02      5.06810e-04
   296.008      6.41600e+01      8.73520e-02      4.20580e-04
   296.058      6.35200e+01      8.04490e-02      2.50010e-04
   296.108      6.25000e+01      8.26250e-02      3.55850e-04
   296.158      6.18500e+01      8.05100e-02      3.37540e-04
   296.208      6.13400e+01      7.78820e-02      2.73030e-04
   296.258      6.11400e+01      8.91690e-02      4.71190e-04
   296.308      6.06100e+01      9.08360e-02      5.37560e-04
   296.358      6.04800e+01      7.95250e-02      3.93920e-04
   296.408      6.04700e+01      7.23130e-02      9.47790e-05
   296.458      6.00000e+01      8.98070e-02      6.17510e-04
   296.508      5.98200e+01      8.83740e-02      4.47360e-04
   296.558      5.99900e+01      6.82870e-02      1.47420e-04
   296.608      5.95600e+01      8.15340e-02      4.39370e-04
   296.658      5.93200e+01      8.44670e-02      5.08510e-04
   296.708      5.89900e+01      7.85780e-02      3.83000e-04
   296.758      5.92500e+01      6.78690e-02      1.83270e-04
   296.808      5.88100e+01      7.72990e-02      3.96600e-04
   296.858      5.83300e+01      7.09140e-02      3.68450e-04
   296.908      5.73700e+01      6.85720e-02      2.89950e-04
   296.958      5.68500e+01      7.10270e-02      3.32910e-04
   297.008      5.63200e+01      7.48970e-02      4.17980e-04
   297.058      5.60100e+01      8.07080e-02      4.64330e-04
   297.108      5.55700e+01      8.05280e-02      4.73930e-04
   297.158      5.51600e+01      7.26880e-02      2.74000e-04
   297.208      5.45900e+01      7.32270e-02      3.37320e-04
   297.258      5.44400e+01      8.06390e-02      4.59010e-04
   297.308      5.39900e+01      7.45840e-02      3.98600e-04
   297.358      5.34300e+01      6.71630e-02      3.27580e-04
   297.408      5.29800e+01      7.74330e-02      4.60420e-04
   297.458      5.26300e+01      7.85080e-02      3.67600e-04
   297.508      5.21000e+01      7.41960e-02      3.75380e-04
   297.558      5.18300e+01      7.27790e-02      2.90920e-04
   297.608      5.15000e+01      7.12610e-02      3.27460e-04
   297.658      5.08700e+01      8.01480e-02      4.85080e-04
   297.708      5.05700e+01      7.32970e-02      3.05970e-04
   297.758      5.02700e+01      7.93860e-02      4.11550e-04
   297.808      4.99100e+01      7.71250e-02      4.56070e-04
   297.858      4.96400e+01      7.67120e-02      3.63990e-04
   297.908      4.91600e+01      7.68780e-02      3.95830e-04
   297.958      4.88200e+01      7.11540e-02      3.40640e-04
   298.008      4.86000e+01      7.34430e-02      3.36480e-04
   298.058      4.84900e+01      7.57620e-02      2.97550e-04
   298.108      4.81700e+01      7.71940e-02      3.37560e-04
   298.152      4.78400e+01      6.83130e-02      3.00810e-04
   298.202      4.74600e+01      6.93060e-02      4.04140e-04
   298.252      4.72400e+01      6.77820e-02      3.46050e-04
   298.302      4.70000e+01      7.27980e-02      4.11610e-04
   298.352      4.67000e+01      7.19200e-02      4.02260e-04
   298.402      4.61600e+01      6.83890e-02      3.76840e-04
   298.452      4.60500e+01      6.72390e-02      3.48840e-04
   298.502      4.60600e+01      6.12140e-02      2.56110e-04
   298.552      4.57400e+01      7.54250e-02      4.78660e-04
   298.602      4.56400e+01      6.93550e-02      3.92950e-04
   298.652      4.57500e+01      5.68060e-02      1.15790e-04
   298.702      4.51100e+01      6.93970e-02      3.28610e-04
   298.752      4.49900e+01      6.93330e-02      3.92940e-04
   298.802      4.48100e+01      6.09490e-02      2.91090e-04
   298.852      4.44000e+01      7.03870e-02      4.73670e-04
   298.902      4.39200e+01      7.66180e-02      5.05760e-04
   298.952      4.40300e+01      6.58860e-02      2.11360e-04
   299.002      4.33600e+01      6.41060e-02      4.29880e-04
   299.052      4.32100e+01      5.97960e-02      2.97830e-04
   299.102      4.26400e+01      7.06960e-02      3.33700e-04
   299.152      4.20800e+01      6.82990e-02      3.90590e-04
   299.202      4.19200e+01      7.87850e-02      4.77820e-04
   299.252      4.14000e+01      6.55750e-02      4.36930e-04
   299.302      4.10600e+01      6.99850e-02      4.48320e-04
   299.352      4.06600e+01      6.94080e-02      3.80000e-04
   299.402      4.01700e+01      6.45050e-02      2.91490e-04
   299.452      3.98700e+01      6.79270e-02      3.75470e-04
   299.502      3.98400e+01      5.46090e-02      1.05710e-04
   299.552      3.92600e+01      7.49890e-02      5.13410e-04
   299.602      3.88400e+01      6.59920e-02      3.73260e-04
   299.652      3.86100e+01      6.37500e-02      2.93290e-04
   299.702      3.83400e+01      6.63280e-02      3.84420e-04
   299.752      3.81400e+01      6.67970e-02      4.08250e-04
   299.802      3.82900e+01      6.40550e-02      2.38250e-04
   299.852      3.81300e+01      6.11960e-02      1.68150e-04
   299.902      3.78700e+01      6.05740e-02      3.13390e-04
   299.952      3.76700e+01      7.26890e-02      4.81630e-04
   300.001      3.75700e+01      5.88200e-02      2.38940e-04
   300.051      3.72200e+01      6.12630e-02      3.18290e-04
   300.101      3.72800e+01      5.50620e-02      1.77130e-04
   300.151      3.67900e+01      5.96330e-02      2.93580e-04
   300.201      3.66800e+01      5.98760e-02      2.41200e-04
   300.251      3.63600e+01      5.84370e-02      2.56590e-04
   300.301      3.62900e+01      5.67220e-02      2.11570e-04
   300.351      3.60100e+01      5.38480e-02      1.82260e-04
   300.401      3.57700e+01      5.13500e-02      1.61170e-04
   300.451      3.56300e+01      5.57240e-02      2.50870e-04
   300.501      3.55200e+01      5.42790e-02      2.34780e-04
   300.551      3.53100e+01      5.67170e-02      2.82210e-04
   300.601      3.50800e+01      5.64650e-02      2.58710e-04
   300.651      3.46800e+01      5.43940e-02      2.28340e-04
   300.701      3.44600e+01      5.29600e-02      2.07290e-04
   300.751      3.41900e+01      5.50990e-02      2.31040e-04
   300.801      3.40300e+01      5.76690e-02      1.94890e-04
   300.851      3.35900e+01      5.61250e-02      2.31870e-04
   300.901      3.31700e+01      5.73590e-02      2.49430e-04
   300.951      3.28700e+01      5.71820e-02      2.31150e-04
   301.001      3.27100e+01      5.51560e-02      1.61400e-04
   301.051      3.23200e+01      5.22290e-02      1.58990e-04
   301.102      3.19300e+01      5.89460e-02      2.13580e-04
   301.152      3.16400e+01      5.54840e-02      1.91440e-04
   301.202      3.13500e+01      5.41690e-02      1.92540e-04
   301.251      3.11800e+01      5.58710e-02      2.15850e-04
   301.301      3.10300e+01      5.25870e-02      1.57840e-04
   301.351      3.07500e+01      5.31510e-02      1.82380e-04
   301.401      3.05400e+01      5.25790e-02      1.65180e-04
   301.451      3.02800e+01      5.34960e-02      1.93080e-04
   301.501      3.01900e+01      5.32860e-02      1.88700e-04
   301.551      3.00600e+01      4.99980e-02      1.49320e-04
   301.601      2.99700e+01      4.97000e-02      1.52020e-04
   301.651      2.98000e+01      4.99760e-02      1.83230e-04
   301.701      2.96800e+01      4.85330e-02      1.78220e-04
   301.751      2.96700e+01      4.71550e-02      1.39030e-04
   301.801      2.94800e+01      5.01280e-02      2.31520e-04
   301.851      2.94000e+01      5.04970e-02      2.35480e-04
   301.901      2.93000e+01      4.67980e-02      1.71320e-04
   301.951      2.91300e+01      4.48410e-02      1.51130e-04
   302.001      2.90700e+01      5.08020e-02      2.20070e-04
   302.051      2.88500e+01      4.57820e-02      1.58990e-04
   302.101      2.87400e+01      4.76420e-02      1.71200e-04
   302.151      2.84000e+01      4.84490e-02      2.15490e-04
   302.201      2.83600e+01      4.50020e-02      1.29340e-04
   302.251      2.82200e+01      4.78060e-02      1.81810e-04
   302.301      2.80300e+01      4.55450e-02      1.34240e-04
   302.351      2.76900e+01      4.83700e-02      2.03340e-04
   302.401      2.74700e+01      4.49010e-02      1.37160e-04
   302.451      2.72100e+01      4.62970e-02      1.60300e-04
   302.501      2.69800e+01      4.85270e-02      1.84590e-04
   302.551      2.68100e+01      4.92220e-02      1.97580e-04
   302.601      2.65200e+01      4.92160e-02      1.98960e-04
   302.651      2.62500e+01      4.69090e-02      1.51450e-04
   302.701      2.59300e+01      5.08970e-02      2.27320e-04
   302.751      2.57600e+01      5.07180e-02      2.25490e-04
   302.801      2.55900e+01      4.77510e-02      1.68330e-04
   302.851      2.53600e+01      4.47940e-02      1.01750e-04
   302.901      2.50400e+01      4.70750e-02      1.51430e-04
   302.951      2.47400e+01      4.60640e-02      1.46820e-04
   303.001      2.45500e+01      5.06390e-02      2.22110e-04
   303.051      2.43800e+01      4.86170e-02      1.93910e-04
   303.101      2.43100e+01      4.96890e-02      1.87760e-04
   303.151      2.40000e+01      4.96920e-02      2.25100e-04
   303.201      2.36600e+01      5.13620e-02      2.96080e-04
   303.251      2.36700e+01      4.63280e-02      1.98370e-04
   303.301      2.37000e+01      4.53460e-02      1.76260e-04
   303.351      2.33800e+01      5.20700e-02      3.01920e-04
   303.401      2.33500e+01      4.72710e-02      2.28290e-04
   303.451      2.31700e+01      4.73810e-02      2.43980e-04
   303.501      2.31300e+01      4.56430e-02      2.05820e-04
   303.551      2.30500e+01      4.68930e-02      1.98210e-04
   303.601      2.28800e+01      4.23140e-02      1.75720e-04
   303.651      2.26300e+01      4.51300e-02      2.54490e-04
   303.701      2.27300e+01      4.72770e-02      2.48120e-04
   303.751      2.26900e+01      4.53640e-02      2.28680e-04
   303.801      2.27600e+01      4.05830e-02      1.41020e-04
   303.851      2.26400e+01      4.01500e-02      1.75580e-04
   303.901      2.26600e+01      4.20920e-02      1.94020e-04
   303.951      2.25300e+01      4.17730e-02      2.31010e-04
   304.001      2.24800e+01      4.21070e-02      2.04820e-04
   304.051      2.24200e+01      4.11040e-02      1.76950e-04
   304.101      2.21200e+01      4.21070e-02      2.30490e-04
   304.151      2.19300e+01      4.18670e-02      1.95790e-04
   304.201      2.18200e+01      4.20960e-02      1.83270e-04
   304.251      2.16900e+01      4.19990e-02      1.75280e-04
   304.301      2.14900e+01      4.30030e-02      2.01190e-04
   304.351      2.13800e+01      4.21850e-02      1.78700e-04
   304.401      2.11800e+01      4.26250e-02      2.03580e-04
   304.451      2.11500e+01      4.33050e-02      1.92780e-04
   304.501      2.09600e+01      4.58260e-02      2.29970e-04
   304.551      2.07700e+01      3.95830e-02      1.53210e-04
   304.601      2.03300e+01      4.59390e-02      2.77520e-04
   304.651      2.02300e+01      4.10210e-02      1.49840e-04
   304.701      1.99200e+01      4.28280e-02      2.04170e-04
   304.751      1.98300e+01      4.04890e-02      1.54120e-04
   304.801      1.97500e+01      3.84400e-02      7.17250e-05
   304.851      1.94500e+01      4.01650e-02      1.13560e-04
   304.901      1.91700e+01      4.18430e-02      1.47120e-04
   304.951      1.89300e+01      4.36160e-02      1.98690e-04
   305.001      1.88500e+01      4.35920e-02      1.77750e-04
   305.051      1.85900e+01      4.09030e-02      1.65070e-04
   305.101      1.84100e+01      4.14660e-02      1.70590e-04
   305.151      1.81800e+01      4.31780e-02      2.03870e-04
   305.201      1.80700e+01      4.05390e-02      1.51890e-04
   305.251      1.79900e+01      3.94600e-02      1.45350e-04
   305.301      1.78300e+01      3.95560e-02      1.64450e-04
   305.351      1.78300e+01      4.13190e-02      1.50590e-04
   305.401      1.75600e+01      4.05970e-02      1.90970e-04
   305.451      1.75000e+01      3.86230e-02      1.84930e-04
   305.501      1.75700e+01      3.63890e-02      1.05480e-04
   305.551      1.74800e+01      3.70250e-02      1.48670e-04
   305.601      1.74300e+01      3.66510e-02      1.43340e-04
   305.651      1.74500e+01      3.52070e-02      1.36270e-04
   305.701      1.73300e+01      3.61990e-02      1.58240e-04
   305.751      1.73600e+01      3.70860e-02      1.60350e-04
   305.801      1.71800e+01      3.94490e-02      2.14240e-04
   305.851      1.70800e+01      3.68740e-02      1.71930e-04
   305.901      1.70600e+01      3.48820e-02      1.20590e-04
   305.951      1.68800e+01      3.54520e-02      1.58360e-04
   306.001      1.68600e+01      3.57250e-02      1.49250e-04
   306.051      1.68200e+01      3.54430e-02      1.68420e-04
   306.101      1.68200e+01      3.39090e-02      1.45390e-04
   306.151      1.69000e+01      3.39870e-02      1.35380e-04
   306.201      1.67500e+01      3.30800e-02      1.74530e-04
   306.251      1.67800e+01      3.41120e-02      1.49000e-04
   306.301      1.67000e+01      3.26650e-02      1.50650e-04
   306.351      1.65500e+01      3.30610e-02      1.57040e-04
   306.401      1.64100e+01      2.95190e-02      7.85020e-05
   306.451      1.61800e+01      3.41100e-02      1.68820e-04
   306.501      1.61000e+01      3.27340e-02      1.25750e-04
   306.551      1.59200e+01      3.52950e-02      1.71200e-04
   306.601      1.57300e+01      3.36750e-02      1.51740e-04
   306.651      1.56200e+01      3.16750e-02      1.22160e-04
   306.701      1.54900e+01      3.37590e-02      1.59530e-04
   306.751      1.54200e+01      3.30270e-02      1.43750e-04
   306.800      1.53400e+01      3.21770e-02      1.18290e-04
   306.850      1.50900e+01      3.56470e-02      1.82310e-04
   306.900      1.48900e+01      3.34630e-02      1.35770e-04
   306.950      1.47500e+01      3.64670e-02      1.70830e-04
   307.000      1.45900e+01      3.52330e-02      1.58310e-04
   307.050      1.44400e+01      3.77840e-02      1.73990e-04
   307.100      1.42400e+01      3.28310e-02      9.20280e-05
   307.150      1.39900e+01      3.41320e-02      1.32520e-04
   307.200      1.39000e+01      3.50380e-02      1.39850e-04
   307.250      1.38000e+01      3.37930e-02      1.07070e-04
   307.300      1.36700e+01      3.46060e-02      1.37230e-04
   307.350      1.35400e+01      3.32500e-02      1.13610e-04
   307.400      1.33700e+01      3.36100e-02      1.16860e-04
   307.450      1.31900e+01      3.32370e-02      1.38560e-04
   307.500      1.31800e+01      3.51920e-02      1.55000e-04
   307.550      1.31500e+01      3.15280e-02      8.71430e-05
   307.600      1.30300e+01      3.14080e-02      9.10520e-05
   307.650      1.29100e+01      3.31630e-02      1.44560e-04
   307.700      1.28800e+01      3.31030e-02      1.57570e-04
   307.750      1.29900e+01      3.16900e-02      1.20160e-04
   307.800      1.29100e+01      3.15100e-02      1.48000e-04
   307.850      1.29400e+01      2.94800e-02      1.18590e-04
   307.900      1.29500e+01      2.94640e-02      1.21700e-04
   307.950      1.28800e+01      2.76100e-02      1.14240e-04
   308.000      1.28700e+01      3.05750e-02      1.61560e-04
   308.050      1.27900e+01      2.75010e-02      1.28460e-04
   308.100      1.26200e+01      2.94280e-02      1.95950e-04
   308.150      1.27100e+01      2.74260e-02      1.31900e-04
   308.200      1.26400e+01      2.89140e-02      1.52840e-04
   308.250      1.24300e+01      3.00090e-02      1.95520e-04
   308.300      1.23500e+01      2.81610e-02      1.39350e-04
   308.350      1.22300e+01      3.12160e-02      1.63290e-04
   308.400      1.20400e+01      2.95760e-02      1.43710e-04
   308.450      1.19600e+01      3.01200e-02      1.53440e-04
   308.500      1.20400e+01      2.83700e-02      1.12100e-04
   308.550      1.20800e+01      2.74130e-02      1.25290e-04
   308.600      1.20800e+01      2.73190e-02      1.33610e-04
   308.650      1.20400e+01      2.53380e-02      1.00230e-04
   308.700      1.19800e+01      2.81020e-02      1.54910e-04
   308.750      1.19800e+01      2.59590e-02      1.09710e-04
   308.800      1.19600e+01      2.62870e-02      9.12340e-05
   308.850      1.18200e+01      2.70330e-02      1.29930e-04
   308.900      1.17500e+01      2.64630e-02      1.03410e-04
   308.950      1.17600e+01      2.70130e-02      1.04790e-04
   309.000      1.16200e+01      3.03960e-02      1.95300e-04
   309.050      1.16000e+01      2.62180e-02      1.15090e-04
   309.100      1.13900e+01      2.84110e-02      1.62180e-04
   309.150      1.12100e+01      2.71210e-02      1.34740e-04
   309.200      1.11000e+01      2.59490e-02      1.34300e-04
   309.250      1.10600e+01      2.58870e-02      1.12560e-04
   309.300      1.08800e+01      2.81910e-02      1.68310e-04
   309.350      1.05900e+01      2.93440e-02      1.89140e-04
   309.400      1.02900e+01      3.02530e-02      1.78730e-04
   309.450      1.01600e+01      3.01810e-02      1.72010e-04
   309.500      1.00400e+01      2.96240e-02      1.72830e-04
   309.550      9.95000e+00      2.64110e-02      1.16620e-04
   309.600      9.81000e+00      2.62320e-02      9.96150e-05
   309.650      9.67000e+00      2.97730e-02      1.60370e-04
   309.700      9.68000e+00      2.85890e-02      1.34700e-04
   309.750      9.68000e+00      2.72420e-02      1.24050e-04
   309.800      9.63000e+00      2.51780e-02      9.11670e-05
   309.850      9.52000e+00      2.66410e-02      1.28700e-04
   309.900      9.49000e+00      2.76180e-02      1.49300e-04
   309.950      9.50000e+00      2.50560e-02      1.08060e-04
   310.000      9.55000e+00      2.40240e-02      6.66690e-05
   310.050      9.53000e+00      2.49360e-02      1.00400e-04
   310.100      9.48000e+00      2.62160e-02      1.30120e-04
   310.150      9.56000e+00      2.35390e-02      9.14100e-05
   310.200      9.56000e+00      2.36710e-02      9.62060e-05
   310.250      9.51000e+00      2.30110e-02      1.15750e-04
   310.300      9.51000e+00      2.18470e-02      7.85040e-05
   310.350      9.28000e+00      2.46460e-02      1.69660e-04
   310.400      9.22000e+00      2.27690e-02      1.20800e-04
   310.450      9.02000e+00      2.39910e-02      1.39930e-04
   310.500      8.97000e+00      2.14290e-02      1.18300e-04
   310.550      8.91000e+00      2.29250e-02      1.28440e-04
   310.600      8.92000e+00      2.24120e-02      1.08650e-04
   310.650      8.87000e+00      2.48630e-02      1.47750e-04
   310.700      8.87000e+00      2.45460e-02      1.42970e-04
   310.750      8.80000e+00      2.22840e-02      1.14630e-04
   310.800      8.73000e+00      2.33430e-02      1.34890e-04
   310.850      8.69000e+00      2.28840e-02      1.00960e-04
   310.900      8.61000e+00      2.35270e-02      1.40390e-04
   310.950      8.62000e+00      2.10050e-02      7.35460e-05
   311.000      8.58000e+00      2.19170e-02      8.84310e-05
   311.050      8.54000e+00      2.23010e-02      1.13330e-04
   311.100      8.50000e+00      2.33040e-02      1.19660e-04
   311.150      8.60000e+00      2.00740e-02      5.64840e-05
   311.200      8.55000e+00      2.03140e-02      8.21130e-05
   311.250      8.56000e+00      2.19130e-02      1.20140e-04
   311.300      8.57000e+00      2.05860e-02      9.39110e-05
   311.350      8.58000e+00      2.08860e-02      1.21230e-04
   311.400      8.50000e+00      1.92830e-02      1.15200e-04
   311.450      8.40000e+00      1.83570e-02      9.12290e-05
   311.500      8.32000e+00      1.99240e-02      1.22680e-04
   311.550      8.22000e+00      1.94610e-02      1.10110e-04
   311.600      8.07000e+00      1.88520e-02      1.02480e-04
   311.650      7.95000e+00      2.20460e-02      1.38010e-04
   311.700      7.79000e+00      2.06010e-02      1.37870e-04
   311.750      7.74000e+00      2.17340e-02      1.28110e-04
   311.800      7.66000e+00      2.11610e-02      9.99270e-05
   311.850      7.56000e+00      2.15230e-02      1.00000e-04
   311.900      7.41000e+00      2.27970e-02      1.36320e-04
   311.950      7.36000e+00      2.10860e-02      1.14840e-04
   312.000      7.30000e+00      2.07380e-02      9.51520e-05
   312.050      7.24000e+00      2.19500e-02      1.09440e-04
   312.100      7.17000e+00      2.17630e-02      1.26390e-04
   312.150      7.14000e+00      1.91960e-02      7.24950e-05
   312.200      7.05000e+00      2.03700e-02      1.16880e-04
   312.250      6.99000e+00      2.02440e-02      1.15350e-04
   312.300      6.95000e+00      2.04900e-02      1.13110e-04
   312.350      6.85000e+00      2.10460e-02      1.22080e-04
   312.400      6.77000e+00      2.06240e-02      1.06530e-04
   312.450      6.66000e+00      2.19540e-02      1.30270e-04
   312.500      6.59000e+00      2.16770e-02      1.37150e-04
   312.550      6.59000e+00      1.93310e-02      8.45990e-05
   312.600      6.57000e+00      2.05810e-02      9.66530e-05
   312.650      6.51000e+00      1.98160e-02      8.97030e-05
   312.700      6.46000e+00      2.06470e-02      1.09630e-04
   312.750      6.40000e+00      1.95340e-02      1.06300e-04
   312.800      6.38000e+00      2.05910e-02      1.01240e-04
   312.850      6.41000e+00      1.86270e-02      8.58150e-05
   312.900      6.35000e+00      1.90500e-02      9.02640e-05
   312.950      6.29000e+00      2.01780e-02      1.12150e-04
   313.000      6.29000e+00      1.79990e-02      5.87560e-05
   313.050      6.27000e+00      1.98770e-02      1.12460e-04
   313.100      6.21000e+00      1.94940e-02      1.30070e-04
   313.150      6.21000e+00      1.75030e-02      8.60220e-05
   313.200      6.33000e+00      1.84390e-02      7.65820e-05
   313.250      6.34000e+00      1.74350e-02      6.62370e-05
   313.300      6.43000e+00      1.55240e-02      5.48490e-05
   313.350      6.52000e+00      1.44390e-02      4.34220e-05
   313.400      6.55000e+00      1.58320e-02      9.13690e-05
   313.450      6.57000e+00      1.47250e-02      9.35480e-05
   313.500      6.52000e+00      1.51640e-02      1.10570e-04
   313.550      6.54000e+00      1.42320e-02      6.86200e-05
   313.600      6.46000e+00      1.66150e-02      1.10160e-04
   313.650      6.33000e+00      1.80940e-02      1.26400e-04
   313.700      6.28000e+00      1.45100e-02      7.82050e-05
   313.750      6.19000e+00      1.69320e-02      1.29170e-04
   313.800      6.10000e+00      1.54340e-02      1.05110e-04
   313.850      6.05000e+00      1.81980e-02      1.10020e-04
   313.900      5.97000e+00      1.79830e-02      9.80970e-05
   313.950      5.88000e+00      1.68380e-02      1.04700e-04
   314.000      5.79000e+00      1.95900e-02      1.38490e-04
   314.049      5.66000e+00      1.93150e-02      1.65030e-04
   314.099      5.60000e+00      1.70060e-02      1.09430e-04
   314.149      5.45000e+00      1.86170e-02      1.31830e-04
   314.199      5.43000e+00      1.68300e-02      9.48070e-05
   314.249      5.35000e+00      1.72320e-02      8.54370e-05
   314.299      5.26000e+00      1.70190e-02      7.00400e-05
   314.349      5.12000e+00      1.81550e-02      1.01600e-04
   314.399      5.03000e+00      1.87530e-02      1.10810e-04
   314.449      4.93000e+00      1.88720e-02      9.11810e-05
   314.499      4.90000e+00      1.79480e-02      7.79350e-05
   314.549      4.87000e+00      1.76080e-02      6.82860e-05
   314.599      4.82000e+00      1.80110e-02      5.88020e-05
   314.649      4.82000e+00      1.64530e-02      5.88740e-05
   314.699      4.83000e+00      1.56210e-02      3.43360e-05
   314.749      4.77000e+00      1.63950e-02      8.58180e-05
   314.799      4.86000e+00      1.42260e-02      2.66330e-05
   314.849      4.78000e+00      1.45550e-02      5.98700e-05
   314.899      4.71000e+00      1.63900e-02      9.50040e-05
   314.949      4.68000e+00      1.54900e-02      8.65790e-05
   314.999      4.61000e+00      1.66470e-02      1.23130e-04
   315.049      4.58000e+00      1.65990e-02      1.27910e-04
   315.099      4.64000e+00      1.38700e-02      5.46730e-05
   315.149      4.69000e+00      1.37670e-02      3.74540e-05
   315.199      4.70000e+00      1.44740e-02      5.17610e-05
   315.249      4.78000e+00      1.38170e-02      1.17990e-05
   315.299      4.80000e+00      1.45260e-02      4.71420e-05
   315.349      4.98000e+00      1.30150e-02      7.68610e-06
   315.399      5.16000e+00      1.15930e-02     -8.14590e-06
   315.449      5.22000e+00      1.04480e-02     -3.59080e-06
   315.499      5.20000e+00      1.06770e-02      2.46060e-05
   315.549      5.13000e+00      1.06420e-02      6.49810e-05
   315.599      5.05000e+00      1.10320e-02      7.35810e-05
   315.649      4.96000e+00      1.10940e-02      6.31270e-05
   315.699      4.82000e+00      1.21110e-02      8.13900e-05
   315.749      4.70000e+00      1.29620e-02      1.25620e-04
   315.799      4.61000e+00      1.25840e-02      1.01540e-04
   315.849      4.53000e+00      1.23040e-02      9.45330e-05
   315.899      4.38000e+00      1.31680e-02      9.89050e-05
   315.949      4.28000e+00      1.39080e-02      1.12820e-04
   315.999      4.20000e+00      1.34730e-02      1.12810e-04
   316.049      4.21000e+00      1.23650e-02      6.47670e-05
   316.099      4.15000e+00      1.36840e-02      7.39110e-05
   316.149      4.14000e+00      1.30340e-02      5.00050e-05
   316.199      4.08000e+00      1.35440e-02      6.73010e-05
   316.249      4.02000e+00      1.37770e-02      8.80700e-05
   316.299      3.96000e+00      1.43540e-02      1.09570e-04
   316.349      3.94000e+00      1.43530e-02      8.97770e-05
   316.399      3.91000e+00      1.31070e-02      5.64880e-05
   316.449      3.78000e+00      1.43550e-02      9.51790e-05
   316.499      3.74000e+00      1.39410e-02      9.35270e-05
   316.549      3.68000e+00      1.45480e-02      1.03300e-04
   316.599      3.61000e+00      1.44040e-02      9.23230e-05
   316.649      3.55000e+00      1.45940e-02      9.29460e-05
   316.699      3.52000e+00      1.49960e-02      1.00760e-04
   316.749      3.53000e+00      1.42980e-02      7.92940e-05
   316.799      3.57000e+00      1.37520e-02      6.48740e-05
   316.849      3.69000e+00      1.31010e-02      1.97790e-05
   316.899      3.80000e+00      1.23550e-02      3.33090e-06
   316.949      3.84000e+00      1.18370e-02      1.51950e-05
   316.999      3.88000e+00      1.10370e-02      6.09850e-06
   317.049      3.80000e+00      1.27200e-02      6.16680e-05
   317.099      3.77000e+00      1.19040e-02      7.54210e-05
   317.149      3.72000e+00      1.22840e-02      7.94330e-05
   317.199      3.69000e+00      1.16490e-02      6.39290e-05
   317.249      3.61000e+00      1.27530e-02      9.85350e-05
   317.299      3.57000e+00      1.23180e-02      1.01860e-04
   317.349      3.58000e+00      1.20670e-02      8.37360e-05
   317.399      3.67000e+00      1.15070e-02      5.50690e-05
   317.449      3.86000e+00      9.56200e-03     -1.57440e-05
   317.499      3.97000e+00      9.04690e-03     -2.51790e-05
   317.549      4.05000e+00      7.31870e-03     -4.29320e-05
   317.599      4.01000e+00      7.61340e-03      1.07210e-05
   317.649      3.90000e+00      8.70920e-03      6.78380e-05
   317.699      3.77000e+00      9.86600e-03      1.02730e-04
   317.749      3.66000e+00      1.08920e-02      1.46730e-04
   317.799      3.55000e+00      1.18320e-02      1.40290e-04
   317.849      3.42000e+00      1.26410e-02      1.57150e-04
   317.899      3.36000e+00      1.24670e-02      1.36790e-04
   317.949      3.36000e+00      1.18710e-02      1.16110e-04
   317.999      3.40000e+00      1.09100e-02      7.49420e-05
   318.049      3.41000e+00      1.06330e-02      5.64600e-05
   318.099      3.31000e+00      1.07200e-02      7.58410e-05
   318.149      3.18000e+00      1.15870e-02      1.03950e-04
   318.199      3.09000e+00      1.18050e-02      1.16090e-04
   318.249      3.01000e+00      1.26370e-02      1.24200e-04
   318.299      2.96000e+00      1.26400e-02      1.20180e-04
   318.349      2.84000e+00      1.31410e-02      1.13710e-04
   318.399      2.80000e+00      1.19640e-02      8.20680e-05
   318.449      2.72000e+00      1.23670e-02      9.67850e-05
   318.499      2.69000e+00      1.28030e-02      9.21320e-05
   318.549      2.65000e+00      1.37100e-02      1.18520e-04
   318.599      2.70000e+00      1.14150e-02      4.46870e-05
   318.649      2.62000e+00      1.24230e-02      7.66990e-05
   318.699      2.54000e+00      1.23890e-02      9.71370e-05
   318.749      2.57000e+00      1.17980e-02      7.99990e-05
   318.799      2.55000e+00      1.14220e-02      6.22190e-05
   318.849      2.46000e+00      1.28010e-02      9.92370e-05
   318.899      2.42000e+00      1.24330e-02      9.21930e-05
   318.949      2.39000e+00      1.20970e-02      7.90720e-05
   318.999      2.34000e+00      1.23500e-02      6.65040e-05
   319.049      2.35000e+00      1.20350e-02      7.64160e-05
   319.099      2.35000e+00      1.22490e-02      7.35450e-05
   319.149      2.45000e+00      1.10410e-02      3.18220e-05
   319.199      2.52000e+00      1.06790e-02      1.68110e-05
   319.249      2.67000e+00      8.96960e-03     -3.29150e-05
   319.299      2.80000e+00      9.35310e-03     -3.47810e-05
   319.349      3.00000e+00      6.90300e-03     -6.67760e-05
   319.399      3.03000e+00      7.10750e-03     -3.74680e-05
   319.449      3.00000e+00      7.45990e-03      1.45040e-05
   319.499      2.99000e+00      7.25780e-03      1.22820e-05
   319.549      2.87000e+00      9.49450e-03      7.86000e-05
   319.605      2.74000e+00      1.05050e-02      1.25620e-04
   319.649      2.70000e+00      1.01190e-02      1.20790e-04
   319.699      2.67000e+00      9.88930e-03      1.03630e-04
   319.749      2.67000e+00      9.89270e-03      8.77790e-05
   319.799      2.70000e+00      8.80690e-03      6.96680e-05
   319.849      2.94000e+00      7.15560e-03     -2.82670e-06
   319.899      3.15000e+00      5.43760e-03     -6.70420e-05
   319.949      3.19000e+00      4.77170e-03     -7.27300e-05
   319.999      3.03000e+00      6.86560e-03      4.37650e-05
   320.049      2.96800e+00      7.05540e-03      3.79450e-05
   320.099      2.84100e+00      7.63760e-03      4.49540e-05
   320.149      2.74800e+00      7.91160e-03      2.99760e-05
   320.199      2.64100e+00      8.76210e-03      4.14890e-05
   320.249      2.55700e+00      9.10780e-03      4.27840e-05
   320.299      2.47300e+00      9.39340e-03      4.33340e-05
   320.349      2.39400e+00      9.40850e-03      3.34430e-05
   320.399      2.31300e+00      9.48340e-03      3.83620e-05
   320.450      2.30000e+00      9.46180e-03      4.27760e-05
   320.500      2.29400e+00      8.92830e-03      3.07860e-05
   320.550      2.25000e+00      9.17910e-03      3.51500e-05
   320.600      2.18500e+00      9.21110e-03      3.17140e-05
   320.650      2.09700e+00      9.31070e-03      3.15150e-05
   320.700      2.01600e+00      9.45480e-03      3.27010e-05
   320.750      1.98500e+00      9.64920e-03      3.18540e-05
   320.800      1.92600e+00      9.79810e-03      3.33830e-05
   320.850      1.84600e+00      9.68170e-03      2.92190e-05
   320.900      1.78600e+00      9.57830e-03      2.90910e-05
   320.950      1.75300e+00      9.71150e-03      2.83720e-05
   321.000      1.71500e+00      9.90610e-03      3.46980e-05
   321.048      1.69600e+00      9.76530e-03      3.63390e-05
   321.100      1.67800e+00      9.44740e-03      3.45840e-05
   321.149      1.67200e+00      9.45490e-03      3.85920e-05
   321.199      1.68000e+00      9.35720e-03      4.21150e-05
   321.249      1.67700e+00      8.86910e-03      3.93180e-05
   321.299      1.69300e+00      8.75510e-03      3.87970e-05
   321.349      1.70200e+00      8.68200e-03      3.98900e-05
   321.399      1.69100e+00      8.54610e-03      3.83110e-05
   321.449      1.67500e+00      8.51930e-03      3.69050e-05
   321.499      1.66500e+00      8.45840e-03      3.65280e-05
   321.549      1.64200e+00      8.81860e-03      4.04370e-05
   321.599      1.61300e+00      8.80310e-03      4.20770e-05
   321.649      1.61900e+00      8.70980e-03      4.22960e-05
   321.699      1.63700e+00      8.89500e-03      5.38990e-05
   321.749      1.68300e+00      8.05820e-03      4.07150e-05
   321.799      1.76700e+00      7.99150e-03      5.16090e-05
   321.849      1.96800e+00      6.65930e-03      4.89680e-05
   321.899      2.18000e+00      5.75350e-03      6.63030e-05
   321.949      2.28400e+00      5.12620e-03      5.19600e-05
   321.999      2.32300e+00      4.90990e-03      4.53930e-05
   322.049      2.32800e+00      5.30760e-03      4.62710e-05
   322.099      2.27700e+00      5.52350e-03      4.04440e-05
   322.149      2.21100e+00      5.69920e-03      3.49150e-05
   322.199      2.15200e+00      6.19520e-03      3.30710e-05
   322.241      2.10000e+00      6.48700e-03      3.24870e-05
   322.291      2.04100e+00      6.59500e-03      3.05500e-05
   322.341      1.96600e+00      6.85440e-03      3.22170e-05
   322.391      1.95400e+00      6.96670e-03      3.19150e-05
   322.441      1.96200e+00      6.85160e-03      4.48930e-05
   322.491      2.05700e+00      6.18910e-03      5.62350e-05
   322.541      2.20100e+00      5.35350e-03      4.32660e-05
   322.591      2.27000e+00      5.13900e-03      3.84600e-05
   322.641      2.23100e+00      4.97540e-03      2.93680e-05
   322.691      2.18200e+00      5.48720e-03      2.95060e-05
   322.741      2.14300e+00      5.54460e-03      2.35240e-05
   322.791      2.06300e+00      5.93000e-03      2.72120e-05
   322.841      1.97100e+00      6.27400e-03      2.23990e-05
   322.891      1.88400e+00      6.50620e-03      2.48220e-05
   322.941      1.78900e+00      6.90190e-03      2.27180e-05
   322.991      1.73400e+00      7.16950e-03      2.53680e-05
   323.041      1.67300e+00      7.46240e-03      2.45260e-05
   323.091      1.59000e+00      7.69800e-03      2.66470e-05
   323.141      1.50600e+00      7.59040e-03      2.19160e-05
   323.191      1.45900e+00      7.83220e-03      2.50000e-05
   323.241      1.41800e+00      7.66120e-03      2.16920e-05
   323.291      1.36400e+00      8.02250e-03      3.14170e-05
   323.341      1.30300e+00      7.76700e-03      2.61220e-05
   323.391      1.26100e+00      7.98230e-03      2.61640e-05
   323.441      1.21300e+00      7.90270e-03      2.73710e-05
   323.491      1.19600e+00      7.65590e-03      2.32510e-05
   323.541      1.16800e+00      7.76870e-03      2.32080e-05
   323.591      1.10400e+00      7.53870e-03      2.40970e-05
   323.641      1.07300e+00      7.74690e-03      2.87910e-05
   323.691      1.04200e+00      7.81460e-03      3.04040e-05
   323.741      1.02400e+00      7.71060e-03      3.03880e-05
   323.791      1.00600e+00      7.97550e-03      3.66590e-05
   323.841      1.00100e+00      7.70660e-03      3.53000e-05
   323.891      9.98000e-01      7.49720e-03      3.52830e-05
   323.941      1.01700e+00      7.30680e-03      3.79450e-05
   323.991      1.04900e+00      7.06040e-03      3.58850e-05
   324.040      1.08300e+00      6.95460e-03      4.30340e-05
   324.090      1.13400e+00      6.26600e-03      3.27340e-05
   324.140      1.15600e+00      6.32300e-03      3.72840e-05
   324.190      1.16800e+00      6.04410e-03      3.16300e-05
   324.240      1.16900e+00      6.20360e-03      3.33960e-05
   324.290      1.15200e+00      6.25960e-03      3.47120e-05
   324.340      1.14000e+00      6.16910e-03      3.27350e-05
   324.390      1.15000e+00      5.74890e-03      2.44330e-05
   324.440      1.13200e+00      6.21670e-03      3.52980e-05
   324.490      1.13800e+00      6.16850e-03      3.32680e-05
   324.540      1.14800e+00      6.09030e-03      3.66720e-05
   324.590      1.21100e+00      5.89830e-03      3.49300e-05
   324.640      1.37200e+00      4.85040e-03      3.31580e-05
   324.690      1.56100e+00      4.11650e-03      4.64210e-05
   324.740      1.66100e+00      3.86210e-03      4.85280e-05
   324.790      1.73400e+00      3.01600e-03      2.50360e-05
   324.840      1.73100e+00      3.53140e-03      3.20220e-05
   324.890      1.68900e+00      3.74050e-03      2.63010e-05
   324.940      1.62900e+00      3.70120e-03      2.58800e-05
   324.990      1.59100e+00      4.09120e-03      2.90160e-05
   325.040      1.52100e+00      4.31830e-03      2.62170e-05
   325.090      1.47200e+00      4.34850e-03      2.07340e-05
   325.140      1.39000e+00      4.78970e-03      1.87890e-05
   325.190      1.34600e+00      4.86480e-03      1.72870e-05
   325.240      1.31400e+00      5.02940e-03      1.97470e-05
   325.290      1.29400e+00      5.61210e-03      2.93780e-05
   325.340      1.29400e+00      5.33970e-03      3.72770e-05
   325.390      1.37900e+00      4.55000e-03      3.06410e-05
   325.440      1.39600e+00      4.41560e-03      2.67780e-05
   325.490      1.38600e+00      4.26220e-03      2.25490e-05
   325.540      1.35100e+00      4.51970e-03      2.61990e-05
   325.590      1.31700e+00      4.50890e-03      2.34820e-05
   325.640      1.24300e+00      4.88800e-03      2.35620e-05
   325.690      1.21600e+00      4.82700e-03      1.97510e-05
   325.740      1.15600e+00      4.89390e-03      1.85260e-05
   325.790      1.11600e+00      4.92290e-03      1.79940e-05
   325.840      1.08100e+00      5.21940e-03      1.66660e-05
   325.890      1.00800e+00      5.41350e-03      1.97840e-05
   325.940      9.74000e-01      5.64430e-03      2.19490e-05
   325.990      9.61000e-01      5.79090e-03      2.08790e-05
   326.040      9.25000e-01      5.74870e-03      1.85670e-05
   326.090      8.81000e-01      6.07770e-03      2.60350e-05
   326.140      8.55000e-01      6.01290e-03      2.23530e-05
   326.190      8.26000e-01      6.31000e-03      2.88380e-05
   326.240      8.17000e-01      6.09020e-03      2.43410e-05
   326.290      7.94000e-01      5.73410e-03      1.94750e-05
   326.340      7.69000e-01      5.74840e-03      2.40230e-05
   326.390      7.48000e-01      5.70770e-03      2.45960e-05
   326.440      7.26000e-01      5.41080e-03      2.12020e-05
   326.490      7.20000e-01      5.59800e-03      2.15630e-05
   326.540      7.02000e-01      5.34790e-03      1.89880e-05
   326.590      6.82000e-01      5.27180e-03      1.93050e-05
   326.640      6.75000e-01      5.40650e-03      2.00860e-05
   326.690      6.50000e-01      5.38230e-03      2.47220e-05
   326.740      6.47000e-01      5.19220e-03      2.13430e-05
   326.790      6.45000e-01      5.07910e-03      1.96980e-05
   326.840      6.53000e-01      5.17810e-03      2.15970e-05
   326.890      6.77000e-01      4.75350e-03      2.10890e-05
   326.940      7.06000e-01      5.06070e-03      3.41140e-05
   326.990      7.55000e-01      4.62680e-03      2.76170e-05
   327.040      8.02000e-01      4.30870e-03      3.04390e-05
   327.090      8.54000e-01      3.68400e-03      2.12640e-05
   327.140      8.70000e-01      3.61220e-03      2.20630e-05
   327.190      8.72000e-01      3.59760e-03      1.90350e-05
   327.240      8.66000e-01      3.79860e-03      2.24750e-05
   327.290      8.58000e-01      3.94280e-03      2.26010e-05
   327.340      8.30000e-01      3.70090e-03      2.10670e-05
   327.390      8.09000e-01      3.65780e-03      1.50980e-05
   327.440      7.92000e-01      3.69290e-03      1.59680e-05
   327.490      7.81000e-01      3.74100e-03      1.90410e-05
   327.540      7.85000e-01      3.78990e-03      1.83630e-05
   327.590      8.04000e-01      3.58050e-03      1.08950e-05
   327.640      8.71000e-01      3.78280e-03      2.99330e-05
   327.690      9.83000e-01      3.48090e-03      3.00790e-05
   327.740      1.07500e+00      2.76880e-03      1.55270e-05
   327.790      1.13500e+00      2.54730e-03      2.64840e-05
   327.840      1.21600e+00      2.07270e-03      2.19070e-05
   327.890      1.25000e+00      1.97960e-03      1.82280e-05
   327.940      1.25000e+00      2.20750e-03      1.52960e-05
   327.990      1.22400e+00      2.39030e-03      1.84490e-05
   328.040      1.18700e+00      2.51030e-03      1.69060e-05
   328.090      1.12800e+00      3.11000e-03      2.55070e-05
   328.140      1.08300e+00      2.90060e-03      1.02690e-05
   328.190      1.03300e+00      3.24600e-03      1.37070e-05
   328.240      9.97000e-01      3.63600e-03      1.78030e-05
   328.290      9.67000e-01      3.60910e-03      1.15510e-05
   328.340      9.18000e-01      3.88430e-03      1.41860e-05
   328.390      8.69000e-01      4.27950e-03      1.51410e-05
   328.440      8.37000e-01      4.36330e-03      1.49750e-05
   328.490      8.12000e-01      4.77460e-03      1.98960e-05
   328.540      7.75000e-01      4.82450e-03      1.95640e-05
   328.590      7.30000e-01      4.46020e-03      1.58920e-05
   328.640      6.93000e-01      4.63000e-03      1.71730e-05
   328.690      6.60000e-01      4.58620e-03      1.66330e-05
   328.740      6.36000e-01      4.57170e-03      1.85330e-05
   328.790      6.13000e-01      4.53610e-03      1.55260e-05
   328.840      5.79000e-01      4.63170e-03      2.04760e-05
   328.890      5.57000e-01      4.33200e-03      1.54190e-05
   328.940      5.47000e-01      4.39950e-03      1.42240e-05
   328.990      5.27000e-01      4.74910e-03      2.07970e-05
   329.040      5.07000e-01      4.31350e-03      1.51420e-05
   329.090      4.89000e-01      4.63170e-03      1.96200e-05
   329.140      4.71000e-01      4.38280e-03      1.66890e-05
   329.190      4.58000e-01      4.47350e-03      2.03420e-05
   329.240      4.44000e-01      4.04470e-03      1.57020e-05
   329.290      4.31000e-01      4.18630e-03      1.99840e-05
   329.340      4.24000e-01      4.11390e-03      1.77970e-05
   329.390      4.14000e-01      3.74170e-03      1.65120e-05
   329.440      4.08000e-01      3.85980e-03      1.86470e-05
   329.490      4.11000e-01      3.67310e-03      1.74560e-05
   329.540      4.19000e-01      3.55590e-03      1.67250e-05
   329.590      4.12000e-01      3.64690e-03      1.96700e-05
   329.640      4.13000e-01      3.49650e-03      1.82010e-05
   329.690      4.13000e-01      3.43390e-03      1.45860e-05
   329.740      4.00000e-01      3.28280e-03      1.53150e-05
   329.790      4.05000e-01      3.18660e-03      1.14050e-05
   329.840      3.90000e-01      3.34070e-03      1.64320e-05
   329.890      3.87000e-01      3.06690e-03      1.26470e-05
   329.940      3.89000e-01      3.15640e-03      1.40530e-05
   329.990      3.97000e-01      3.13250e-03      1.83090e-05
   330.040      4.11000e-01      3.28390e-03      2.22020e-05
   330.090      4.42000e-01      3.02120e-03      2.23570e-05
   330.140      5.19000e-01      2.70020e-03      2.76420e-05
   330.190      6.07000e-01      2.14230e-03      2.16850e-05
   330.240      6.43000e-01      2.51510e-03      2.54810e-05
   330.290      6.64000e-01      2.40890e-03      2.36450e-05
   330.340      6.73000e-01      2.49390e-03      2.12030e-05
   330.390      6.67000e-01      2.61320e-03      1.81050e-05
   330.440      6.62000e-01      2.73980e-03      1.53900e-05
   330.490      6.51000e-01      2.94170e-03      1.90450e-05
   330.540      6.37000e-01      2.70030e-03      1.11620e-05
   330.590      6.23000e-01      2.73060e-03      8.83110e-06
   330.640      5.92000e-01      3.09860e-03      1.73940e-05
   330.690      5.79000e-01      2.88380e-03      1.43430e-05
   330.740      5.80000e-01      2.89780e-03      1.43700e-05
   330.790      5.69000e-01      3.01290e-03      2.17870e-05
   330.840      5.96000e-01      2.66070e-03      2.09990e-05
   330.890      6.92000e-01      2.20960e-03      2.21000e-05
   330.940      7.42000e-01      1.57350e-03      1.61270e-05
   330.990      7.90000e-01      1.92490e-03      1.36250e-05
   331.040      8.00000e-01      2.01070e-03      1.41730e-05
   331.090      7.82000e-01      2.22570e-03      1.83230e-05
   331.140      7.61000e-01      2.74340e-03      1.89650e-05
   331.190      7.45000e-01      2.50990e-03      1.00790e-05
   331.240      7.21000e-01      2.77480e-03      1.62490e-05
   331.290      6.85000e-01      2.61450e-03      1.35060e-05
   331.340      6.56000e-01      2.89700e-03      1.17980e-05
   331.390      6.25000e-01      2.63280e-03      5.69690e-06
   331.440      5.79000e-01      2.74070e-03      9.80110e-06
   331.490      5.62000e-01      2.96430e-03      1.00050e-05
   331.540      5.44000e-01      2.91830e-03      9.39370e-06
   331.590      5.12000e-01      3.31110e-03      1.50570e-05
   331.640      4.93000e-01      2.97740e-03      7.32880e-06
   331.690      4.63000e-01      3.41300e-03      1.52520e-05
   331.740      4.48000e-01      3.09290e-03      1.14850e-05
   331.790      4.29000e-01      3.37270e-03      1.54460e-05
   331.840      4.02000e-01      3.17300e-03      1.37860e-05
   331.890      3.86000e-01      3.12470e-03      1.32780e-05
   331.940      3.67000e-01      2.91120e-03      1.06030e-05
   331.990      3.52000e-01      2.80850e-03      1.11380e-05
   332.040      3.36000e-01      2.99850e-03      1.38080e-05
   332.090      3.20000e-01      2.74100e-03      1.17160e-05
   332.140      3.04000e-01      2.69420e-03      1.10570e-05
   332.190      2.96000e-01      2.79620e-03      1.31670e-05
   332.240      2.90000e-01      2.63420e-03      1.07160e-05
   332.290      2.75000e-01      2.77750e-03      1.32390e-05
   332.339      2.67000e-01      2.68440e-03      1.27850e-05
   332.389      2.56000e-01      2.89480e-03      1.68020e-05
   332.439      2.51000e-01      2.67120e-03      1.47770e-05
   332.489      2.56000e-01      2.43860e-03      8.64200e-06
   332.539      2.45000e-01      2.35430e-03      1.06330e-05
   332.589      2.45000e-01      2.40630e-03      1.16550e-05
   332.639      2.38000e-01      2.41990e-03      1.42910e-05
   332.689      2.41000e-01      2.44790e-03      1.58900e-05
   332.739      2.46000e-01      2.43100e-03      1.68350e-05
   332.789      2.60000e-01      2.21060e-03      1.31840e-05
   332.839      2.58000e-01      2.25140e-03      1.85200e-05
   332.889      2.74000e-01      1.99920e-03      1.27990e-05
   332.939      2.79000e-01      2.12000e-03      1.43010e-05
   332.989      2.85000e-01      2.28590e-03      1.61310e-05
   333.039      2.91000e-01      2.38680e-03      1.58760e-05
   333.089      3.07000e-01      2.54590e-03      1.47810e-05
   333.139      3.05000e-01      2.70940e-03      1.62210e-05
   333.189      3.10000e-01      2.74370e-03      1.53380e-05
   333.239      3.09000e-01      2.69310e-03      1.46480e-05
   333.289      3.11000e-01      2.53490e-03      1.35920e-05
   333.339      3.13000e-01      2.57650e-03      1.60710e-05
   333.389      3.27000e-01      2.44760e-03      1.66220e-05
   333.439      3.59000e-01      2.28250e-03      1.74470e-05
   333.489      4.01000e-01      2.04900e-03      1.87640e-05
   333.539      4.64000e-01      1.55400e-03      1.68770e-05
   333.589      5.11000e-01      1.25630e-03      1.50700e-05
   333.639      5.35000e-01      1.42360e-03      1.47480e-05
   333.689      5.45000e-01      1.28810e-03      8.74090e-06
   333.739      5.39000e-01      1.84960e-03      1.72870e-05
   333.789      5.35000e-01      1.90860e-03      1.51410e-05
   333.839      5.28000e-01      2.21860e-03      1.53390e-05
   333.889      5.10000e-01      2.19280e-03      1.07300e-05
   333.939      4.88000e-01      2.26620e-03      1.08260e-05
   333.989      4.68000e-01      2.45570e-03      1.40700e-05
   334.039      4.47000e-01      2.49680e-03      1.33500e-05
   334.089      4.31000e-01      2.38340e-03      8.77360e-06
   334.139      3.96000e-01      2.62370e-03      1.57050e-05
   334.189      3.80000e-01      2.62310e-03      1.32510e-05
   334.239      3.59000e-01      2.34370e-03      1.18640e-05
   334.289      3.41000e-01      2.64840e-03      1.63480e-05
   334.339      3.28000e-01      2.39720e-03      1.20370e-05
   334.389      3.15000e-01      2.53410e-03      1.35980e-05
   334.439      3.03000e-01      2.24140e-03      9.10630e-06
   334.489      2.93000e-01      2.37410e-03      1.28640e-05
   334.539      2.90000e-01      2.36830e-03      1.28770e-05
   334.589      2.76000e-01      2.24520e-03      1.16420e-05
   334.639      2.70000e-01      2.33110e-03      1.24580e-05
   334.689      2.60000e-01      2.20090e-03      1.07120e-05
   334.739      2.48000e-01      2.22400e-03      1.14190e-05
   334.789      2.35000e-01      1.98900e-03      9.41640e-06
   334.839      2.21000e-01      1.97900e-03      1.06010e-05
   334.889      2.17000e-01      1.87040e-03      6.81920e-06
   334.939      1.99000e-01      1.78860e-03      8.24520e-06
   334.989      1.92000e-01      2.00000e-03      1.00350e-05
   335.039      1.81000e-01      2.06890e-03      1.33700e-05
   335.090      1.72000e-01      1.97600e-03      1.30630e-05
   335.140      1.59000e-01      1.86520e-03      1.36510e-05
   335.190      1.59000e-01      2.02060e-03      1.34990e-05
   335.240      1.60000e-01      1.90470e-03      1.12320e-05
   335.290      1.55000e-01      1.93080e-03      1.18210e-05
   335.340      1.48000e-01      1.81100e-03      1.12250e-05
   335.390      1.48000e-01      1.92550e-03      1.15450e-05
   335.440      1.47000e-01      1.83020e-03      1.03200e-05
   335.490      1.48000e-01      1.77610e-03      9.11720e-06
   335.540      1.44000e-01      1.68440e-03      1.03850e-05
   335.590      1.47000e-01      1.77570e-03      1.01380e-05
   335.640      1.42000e-01      1.68120e-03      9.35440e-06
   335.689      1.38000e-01      1.52720e-03      7.35600e-06
   335.739      1.37000e-01      1.80650e-03      1.22470e-05
   335.789      1.33000e-01      1.66550e-03      1.05460e-05
   335.839      1.27000e-01      1.73240e-03      1.23060e-05
   335.889      1.37000e-01      1.85540e-03      1.24160e-05
   335.939      1.32000e-01      1.79500e-03      1.31250e-05
   335.989      1.39000e-01      1.77680e-03      1.18120e-05
   336.039      1.38000e-01      1.99950e-03      1.57790e-05
   336.089      1.55000e-01      2.03820e-03      1.31060e-05
   336.139      1.70000e-01      1.97860e-03      1.13380e-05
   336.189      1.83000e-01      2.09450e-03      1.20560e-05
   336.239      1.91000e-01      1.99400e-03      1.03460e-05
   336.289      2.08000e-01      1.67730e-03      5.95130e-06
   336.339      2.21000e-01      1.61250e-03      8.79820e-06
   336.389      2.34000e-01      1.62600e-03      1.06490e-05
   336.439      2.35000e-01      1.78740e-03      1.32390e-05
   336.489      2.28000e-01      1.67930e-03      1.36070e-05
   336.539      2.31000e-01      1.56660e-03      9.37830e-06
   336.589      2.19000e-01      1.72640e-03      1.53320e-05
   336.639      2.14000e-01      1.58190e-03      1.29480e-05
   336.689      2.11000e-01      1.75050e-03      1.43750e-05
   336.739      2.15000e-01      1.78860e-03      1.24070e-05
   336.789      2.11000e-01      2.01330e-03      1.72710e-05
   336.839      2.17000e-01      1.96980e-03      1.53020e-05
   336.889      2.26000e-01      1.99780e-03      1.58740e-05
   336.939      2.50000e-01      1.69900e-03      8.04340e-06
   336.989      2.56000e-01      1.84510e-03      1.33410e-05
   337.039      2.89000e-01      1.96040e-03      1.67970e-05
   337.089      3.54000e-01      1.29380e-03     -2.88270e-06
   337.139      3.61000e-01      1.10720e-03      5.27740e-06
   337.190      3.59000e-01      1.03300e-03      1.04370e-05
   337.239      3.56000e-01      1.04230e-03      1.14270e-05
   337.289      3.48000e-01      1.07800e-03      1.32400e-05
   337.339      3.30000e-01      1.18160e-03      1.51430e-05
   337.389      3.18000e-01      1.29850e-03      1.57450e-05
   337.439      3.05000e-01      1.33850e-03      1.42580e-05
   337.489      2.97000e-01      1.33920e-03      1.26370e-05
   337.539      2.79000e-01      1.49750e-03      1.60230e-05
   337.589      2.73000e-01      1.30450e-03      7.52150e-06
   337.639      2.50000e-01      1.54710e-03      1.55570e-05
   337.689      2.42000e-01      1.38030e-03      8.69310e-06
   337.739      2.22000e-01      1.55190e-03      1.60810e-05
   337.789      2.11000e-01      1.43110e-03      1.30460e-05
   337.839      2.06000e-01      1.40980e-03      1.03440e-05
   337.889      1.91000e-01      1.35060e-03      9.46790e-06
   337.939      1.87000e-01      1.31540e-03      6.84060e-06
   337.989      1.78000e-01      1.20300e-03      6.91530e-06
   338.039      1.64000e-01      1.30690e-03      9.38750e-06
   338.081      1.58000e-01      1.47820e-03      9.84240e-06
   338.131      1.47000e-01      1.39590e-03      9.93730e-06
   338.181      1.35000e-01      1.37030e-03      1.23070e-05
   338.231      1.32000e-01      1.31240e-03      1.01200e-05
   338.281      1.23000e-01      1.38480e-03      1.18090e-05
   338.331      1.28000e-01      1.36250e-03      8.68110e-06
   338.381      1.14000e-01      1.23070e-03      7.65430e-06
   338.431      1.05000e-01      1.58460e-03      1.54420e-05
   338.481      1.10000e-01      1.25800e-03      8.78630e-06
   338.531      1.00000e-01      1.45470e-03      1.25980e-05
   338.581      1.14000e-01      1.36080e-03      7.82150e-06
   338.631      1.11000e-01      1.39140e-03      8.12650e-06
   338.681      9.80000e-02      1.37440e-03      1.08220e-05
   338.731      1.03000e-01      1.41590e-03      8.49570e-06
   338.781      1.04000e-01      1.54360e-03      9.42920e-06
   338.831      9.40000e-02      1.52010e-03      1.32160e-05
   338.881      9.70000e-02      1.49620e-03      1.08530e-05
   338.931      9.80000e-02      1.40800e-03      8.91740e-06
   338.981      9.60000e-02      1.57680e-03      1.31170e-05
   339.031      9.40000e-02      1.46780e-03      1.19240e-05
   339.081      9.50000e-02      1.38270e-03      9.23980e-06
   339.131      1.00000e-01      1.34710e-03      6.21290e-06
   339.181      9.50000e-02      1.49690e-03      1.22230e-05
   339.231      1.00000e-01      1.57540e-03      1.17590e-05
   339.281      1.12000e-01      1.60070e-03      9.98340e-06
   339.331      1.11000e-01      1.58370e-03      1.12220e-05
   339.381      1.15000e-01      1.72810e-03      1.16520e-05
   339.431      1.16000e-01      1.84080e-03      1.39460e-05
   339.481      1.16000e-01      1.81580e-03      1.40320e-05
   339.531      1.11000e-01      1.90490e-03      1.70020e-05
   339.581      1.10000e-01      1.81120e-03      1.50270e-05
   339.631      1.16000e-01      1.63530e-03      1.02680e-05
   339.681      1.14000e-01      1.66060e-03      1.08390e-05
   339.731      1.17000e-01      1.49180e-03      9.12070e-06
   339.781      1.18000e-01      1.50600e-03      1.07070e-05
   339.831      1.21000e-01      1.74120e-03      1.35060e-05
   339.881      1.45000e-01      1.32060e-03      4.46870e-06
   339.931      1.60000e-01      1.08360e-03      2.31770e-06
   339.981      1.81000e-01      1.16920e-03      3.91700e-06
   339.982      0.00000e+00      0.00000e+00      0.00000e+00
   405.000      0.00000e+00      0.00000e+00      0.00000e+00
   406.000      5.82000e-04     -2.93980e-12      1.31257e-14
   407.000      1.16000e-03     -1.16281e-11     -2.18016e-13
   408.000      1.75000e-03     -6.41319e-12      6.13089e-14
   409.000      2.33000e-03     -1.04570e-11      1.36920e-13
   410.000      2.91000e-03     -8.21257e-12      3.63397e-13
   411.000      2.96000e-03     -9.82456e-12      4.59903e-13
   412.000      3.00000e-03     -1.95813e-11      1.03272e-13
   413.000      3.05000e-03     -3.79298e-11     -9.65309e-13
   414.000      3.09000e-03     -2.83755e-11     -4.68715e-13
   415.000      3.14000e-03     -1.74109e-11     -7.04745e-14
   416.000      3.31000e-03     -1.64055e-11      1.11097e-13
   417.000      3.48000e-03     -1.54002e-11      2.92669e-13
   418.000      3.65000e-03      7.49081e-12      1.01560e-12
   419.000      3.82000e-03     -2.33914e-11      4.22168e-14
   420.000      3.99000e-03     -3.86764e-11     -5.40675e-13
   421.000      4.50000e-03     -2.98181e-11     -2.45715e-13
   422.000      5.01000e-03     -3.42294e-11     -6.26457e-13
   423.000      5.52000e-03     -2.44789e-11      4.69749e-13
   424.000      6.03000e-03     -8.88621e-12      1.31620e-12
   425.000      6.54000e-03     -1.32975e-11      9.35457e-13
   426.000      6.60000e-03     -4.91006e-11     -6.84079e-13
   427.000      6.66000e-03     -5.88581e-11     -8.98900e-13
   428.000      6.71000e-03     -2.48688e-11      8.15294e-13
   429.000      6.77000e-03     -4.80952e-11     -5.02507e-13
   430.000      6.83000e-03     -4.52761e-11     -4.15593e-13
   431.000      7.20000e-03     -7.16151e-11     -1.87644e-12
   432.000      7.56000e-03     -5.33148e-11     -6.07019e-13
   433.000      7.93000e-03     -4.75669e-11     -4.85625e-13
   434.000      8.29000e-03     -6.78886e-11     -9.22657e-13
   435.000      8.66000e-03     -2.30249e-11      8.51877e-13
   436.000      9.43000e-03     -6.96872e-11     -7.62379e-13
   437.000      1.02000e-02     -3.91055e-11      1.03627e-12
   438.000      1.10000e-02     -8.15368e-11     -8.73050e-13
   439.000      1.17000e-02     -9.98479e-11     -9.46938e-13
   440.000      1.25000e-02     -1.30196e-10     -2.50121e-12
   441.000      1.30000e-02     -1.45091e-11      1.65872e-12
   442.000      1.35000e-02     -7.66785e-11     -8.13152e-15
   443.000      1.39000e-02     -9.13590e-11     -8.38577e-13
   444.000      1.44000e-02     -1.43230e-10     -3.75287e-12
   445.000      1.49000e-02     -5.09114e-11      1.40608e-12
   446.000      1.53000e-02     -1.82844e-10     -5.29165e-12
   447.000      1.58000e-02     -2.71487e-11      1.32266e-12
   448.000      1.62000e-02     -9.31230e-11     -6.08106e-13
   449.000      1.67000e-02     -1.42222e-10     -2.02653e-12
   450.000      1.71000e-02     -1.07584e-10     -1.54342e-12
   451.000      1.79000e-02     -5.97007e-11      2.08591e-13
   452.000      1.87000e-02     -1.52438e-10     -2.90766e-12
   453.000      1.96000e-02     -1.39961e-10     -1.63701e-12
   454.000      2.04000e-02     -7.82109e-11      2.07253e-12
   455.000      2.12000e-02     -1.07572e-10      4.11640e-13
   456.000      2.41000e-02     -1.95626e-10     -2.86017e-12
   457.000      2.70000e-02     -1.53357e-10     -1.62630e-14
   458.000      2.99000e-02     -2.15270e-10     -2.79122e-12
   459.000      3.28000e-02     -2.23308e-10     -1.15426e-12
   460.000      3.57000e-02     -3.11361e-10     -4.42606e-12
   461.000      3.59000e-02     -3.09296e-10     -6.88998e-12
   462.000      3.61000e-02     -2.73951e-10     -2.44708e-12
   463.000      3.64000e-02     -1.26662e-10      1.93030e-12
   464.000      3.66000e-02     -1.71334e-10      1.46442e-12
   465.000      3.68000e-02     -5.24982e-10     -1.26530e-11
   466.000      3.76000e-02     -2.48936e-10     -3.86732e-12
   467.000      3.83000e-02     -2.65462e-10     -2.33872e-12
   468.000      3.91000e-02     -2.44517e-10     -2.79267e-12
   469.000      3.98000e-02     -2.61043e-10     -1.26407e-12
   470.000      4.06000e-02     -1.91767e-10     -2.97837e-13
   471.000      4.23000e-02     -1.31406e-10      2.72482e-12
   472.000      4.39000e-02     -2.42410e-10     -1.59066e-12
   473.000      4.56000e-02     -1.35313e-10     -5.66045e-13
   474.000      4.72000e-02     -4.47541e-10     -9.70928e-12
   475.000      4.89000e-02     -3.81637e-10     -3.69488e-12
   476.000      5.33000e-02     -2.15715e-10      3.55900e-13
   477.000      5.78000e-02     -3.83088e-10     -3.74280e-12
   478.000      6.22000e-02     -6.75086e-10     -1.71777e-11
   479.000      6.67000e-02     -3.32257e-10     -2.79701e-12
   480.000      7.11000e-02     -7.17730e-10     -1.22358e-11
   481.000      7.37000e-02     -3.21661e-10     -1.48664e-12
   482.000      7.64000e-02     -4.60112e-10     -3.71471e-12
   483.000      7.90000e-02     -6.26526e-10     -1.24386e-11
   484.000      8.17000e-02     -4.03719e-10     -2.13813e-14
   485.000      8.43000e-02     -9.20303e-10     -1.74071e-11
   486.000      8.40000e-02     -5.57390e-10     -3.30511e-12
   487.000      8.37000e-02     -5.03453e-10     -2.85472e-12
   488.000      8.34000e-02     -1.40540e-10      1.12473e-11
   489.000      8.31000e-02     -5.96805e-10     -6.78172e-12
   490.000      8.28000e-02     -4.35117e-10      2.49251e-12
   491.000      8.44000e-02     -1.92001e-10      6.41236e-12
   492.000      8.60000e-02     -7.64874e-10     -1.49623e-11
   493.000      8.77000e-02     -2.89381e-10      7.11758e-12
   494.000      8.93000e-02     -9.58918e-10     -1.70974e-11
   495.000      9.09000e-02     -1.01050e-09     -1.40092e-11
   496.000      9.71000e-02     -1.62074e-10      1.14780e-11
   497.000      1.03000e-01     -5.74813e-10     -3.74708e-13
   498.000      1.10000e-01     -2.99622e-10      1.27406e-11
   499.000      1.16000e-01     -1.21996e-09     -2.98991e-11
   500.000      1.22000e-01     -6.88899e-10     -2.84671e-13
   501.000      1.30000e-01     -6.77483e-10     -2.81550e-12
   502.000      1.38000e-01     -6.51790e-10      7.47361e-12
   503.000      1.46000e-01     -1.16166e-09     -1.95201e-11
   504.000      1.54000e-01     -1.05359e-09     -1.92105e-11
   505.000      1.62000e-01     -8.12391e-10      8.72626e-12
   506.000      1.61000e-01     -5.62893e-10      1.15525e-11
   507.000      1.60000e-01     -4.17957e-10      1.23913e-11
   508.000      1.60000e-01     -4.17957e-10      1.23913e-11
   509.000      1.59000e-01     -1.29343e-09     -2.37286e-11
   510.000      1.58000e-01     -1.25305e-09     -2.48772e-11
   511.000      1.58000e-01     -1.25305e-09     -2.48772e-11
   512.000      1.59000e-01     -1.29343e-09     -2.37286e-11
   513.000      1.59000e-01     -1.29343e-09     -2.37286e-11
   514.000      1.60000e-01     -4.17957e-10      1.23913e-11
   515.000      1.60000e-01     -4.17957e-10      1.23913e-11
   516.000      1.64000e-01     -1.63783e-09     -3.02341e-11
   517.000      1.67000e-01     -8.65282e-10     -3.78401e-12
   518.000      1.71000e-01     -1.06475e-09     -9.45070e-12
   519.000      1.74000e-01     -7.77040e-10      1.73235e-11
   520.000      1.78000e-01     -5.96233e-10      9.34533e-12
   521.000      1.84000e-01     -1.49440e-09     -2.13274e-11
   522.000      1.90000e-01     -2.60169e-09     -5.59749e-11
   523.000      1.95000e-01     -2.03663e-09     -4.11820e-11
   524.000      2.01000e-01     -1.74324e-09     -4.11822e-11
   525.000      2.07000e-01     -1.40550e-09     -1.72485e-11
   526.000      2.17000e-01     -6.49276e-10      2.83217e-11
   527.000      2.26000e-01      3.34271e-10      6.47511e-11
   528.000      2.36000e-01     -3.83087e-10      2.61003e-11
   529.000      2.45000e-01     -1.44035e-09     -1.13877e-11
   530.000      2.55000e-01     -2.32248e-09     -3.00794e-11
   531.000      2.59000e-01     -6.96640e-10      2.05236e-11
   532.000      2.63000e-01     -6.80605e-10      3.25046e-11
   533.000      2.66000e-01     -2.86471e-09     -4.99340e-11
   534.000      2.70000e-01     -1.44799e-09     -3.30575e-12
   535.000      2.74000e-01     -1.01371e-09      1.66248e-11
   536.000      2.77000e-01     -2.81116e-09     -5.44523e-11
   537.000      2.80000e-01     -2.35868e-09     -4.76373e-11
   538.000      2.82000e-01     -3.45345e-09     -6.86260e-11
   539.000      2.85000e-01     -9.60163e-10      1.21065e-11
   540.000      2.88000e-01     -1.90836e-09     -1.57257e-11
   541.000      2.92000e-01     -2.32333e-09     -3.90401e-11
   542.000      2.96000e-01     -1.50239e-09     -7.74809e-12
   543.000      2.99000e-01     -7.83679e-10      5.43214e-11
   544.000      3.03000e-01     -2.26978e-09     -4.35585e-11
   545.000      3.07000e-01     -1.61362e-09      7.69270e-12
   546.000      3.09000e-01     -4.58458e-10      6.45963e-11
   547.000      3.11000e-01     -5.83556e-10      4.29595e-11
   548.000      3.13000e-01     -2.31846e-09     -1.72993e-11
   549.000      3.15000e-01     -1.80343e-09      3.34118e-13
   550.000      3.17000e-01     -2.09330e-09     -1.34350e-12
   551.000      3.21000e-01     -3.02688e-10      2.93004e-11
   552.000      3.25000e-01     -1.47821e-09      1.06089e-11
   553.000      3.28000e-01     -3.27566e-09     -6.04682e-11
   554.000      3.32000e-01     -1.60547e-09      1.40687e-11
   555.000      3.36000e-01     -2.22956e-09     -1.32204e-11
   556.000      3.46000e-01     -2.70924e-09     -2.22566e-11
   557.000      3.57000e-01     -2.01556e-09      1.24952e-11
   558.000      3.67000e-01     -3.77550e-09     -7.50813e-11
   559.000      3.78000e-01     -1.85867e-09     -1.30689e-11
   560.000      3.88000e-01     -3.56151e-09     -4.93657e-11
   561.000      3.97000e-01     -1.93783e-09      2.63339e-11
   562.000      4.05000e-01     -2.82488e-09     -7.15746e-11
   563.000      4.14000e-01     -2.81100e-09     -3.44970e-11
   564.000      4.22000e-01     -2.77893e-09     -1.05350e-11
   565.000      4.31000e-01     -2.82217e-09     -2.47372e-11
   566.000      4.38000e-01     -3.15855e-09     -2.52522e-11
   567.000      4.45000e-01     -1.08023e-09      3.21659e-11
   568.000      4.53000e-01     -6.29912e-10      6.40775e-11
   569.000      4.60000e-01     -9.66297e-10      6.35625e-11
   570.000      4.67000e-01     -2.96959e-09     -2.68543e-11
   571.000      4.69000e-01     -3.89959e-09     -6.78021e-11
   572.000      4.70000e-01     -3.05578e-09      1.59042e-11
   573.000      4.72000e-01     -7.66175e-10      5.22005e-11
   574.000      4.73000e-01     -2.39417e-09      2.66940e-11
   575.000      4.75000e-01      7.57440e-10      1.33581e-10
   576.000      4.71000e-01     -3.54933e-09     -3.02095e-11
   577.000      4.67000e-01     -2.96959e-09     -2.68543e-11
   578.000      4.63000e-01     -1.10959e-09      5.50413e-11
   579.000      4.59000e-01     -2.94455e-09      4.63421e-13
   580.000      4.55000e-01     -2.36481e-09      3.81865e-12
   581.000      4.51000e-01     -9.80171e-10      2.64849e-11
   582.000      4.47000e-01     -7.29974e-10      6.97584e-11
   583.000      4.43000e-01     -3.42694e-09     -5.54102e-11
   584.000      4.39000e-01     -4.45700e-09     -9.06770e-11
   585.000      4.35000e-01     -4.68216e-09     -1.06633e-10
   586.000      4.36000e-01     -1.42365e-09      3.50066e-11
   587.000      4.38000e-01     -3.15855e-09     -2.52522e-11
   588.000      4.39000e-01     -4.45700e-09     -9.06770e-11
   589.000      4.41000e-01     -2.11029e-09     -3.10094e-12
   590.000      4.42000e-01     -2.93339e-09     -9.29641e-12
   591.000      4.46000e-01     -3.98849e-09     -7.18809e-11
   592.000      4.50000e-01     -1.67817e-09      4.19262e-11
   593.000      4.53000e-01     -6.29912e-10      6.40775e-11
   594.000      4.57000e-01     -2.07166e-09     -9.86852e-12
   595.000      4.61000e-01     -5.54146e-09     -1.30386e-10
   596.000      4.67000e-01     -2.96959e-09     -2.68543e-11
   597.000      4.72000e-01     -7.66175e-10      5.22005e-11
   598.000      4.78000e-01     -1.47101e-09      2.72085e-11
   599.000      4.83000e-01     -3.34921e-09     -4.15715e-11
   600.000      4.89000e-01     -4.05405e-09     -6.65634e-11
   601.000      4.88000e-01     -2.75560e-09     -1.13868e-12
   602.000      4.87000e-01     -2.31915e-09     -6.30465e-12
   603.000      4.86000e-01     -3.43540e-09      1.18705e-12
   604.000      4.85000e-01     -4.27921e-09     -8.25192e-11
   605.000      4.84000e-01     -2.98076e-09     -1.70945e-11
   606.000      4.78000e-01     -1.47101e-09      2.72085e-11
   607.000      4.72000e-01     -7.66175e-10      5.22005e-11
   608.000      4.66000e-01     -3.33805e-09     -5.13313e-11
   609.000      4.60000e-01     -9.66297e-10      6.35625e-11
   610.000      4.54000e-01     -3.53817e-09     -3.99694e-11
   611.000      4.48000e-01     -1.64178e-09      1.56951e-11
   612.000      4.42000e-01     -2.93339e-09     -9.29641e-12
   613.000      4.36000e-01     -1.42365e-09      3.50066e-11
   614.000      4.30000e-01     -2.32861e-09      2.13765e-11
   615.000      4.24000e-01     -2.42867e-09      2.70575e-11
   616.000      4.17000e-01     -1.28739e-09      4.68835e-11
   617.000      4.10000e-01     -3.03616e-09     -5.04528e-11
   618.000      4.04000e-01     -2.33132e-09     -2.54608e-11
   619.000      3.97000e-01     -1.93783e-09      2.63339e-11
   620.000      3.90000e-01     -4.07326e-09     -8.23639e-11
   621.000      3.84000e-01     -2.50641e-09      1.32188e-11
   622.000      3.78000e-01     -1.85867e-09     -1.30689e-11
   623.000      3.72000e-01     -3.18189e-09     -3.46485e-11
   624.000      3.66000e-01     -2.53415e-09     -6.09363e-11
   625.000      3.60000e-01     -9.67306e-10      3.46465e-11
   626.000      3.57000e-01     -2.01556e-09      1.24952e-11
   627.000      3.53000e-01     -3.10273e-09     -7.40513e-11
   628.000      3.50000e-01     -8.74277e-10      3.23212e-11
   629.000      3.46000e-01     -2.70924e-09     -2.22566e-11
   630.000      3.43000e-01     -2.62305e-09     -6.50151e-11
   631.000      3.38000e-01     -1.50540e-09      8.38777e-12
   632.000      3.33000e-01     -3.11304e-09     -5.53308e-11
   633.000      3.27000e-01     -9.63175e-10      2.82423e-11
   634.000      3.22000e-01     -1.12579e-09      2.31049e-11
   635.000      3.17000e-01     -2.09330e-09     -1.34350e-12
   636.000      3.08000e-01     -2.10717e-09     -3.84210e-11
   637.000      3.00000e-01     -1.48636e-09      4.23291e-12
   638.000      2.91000e-01     -2.46990e-09     -3.21965e-11
   639.000      2.83000e-01     -2.07097e-09     -2.08632e-11
   640.000      2.74000e-01     -1.01371e-09      1.66248e-11
   641.000      2.71000e-01     -1.46619e-09      9.80980e-12
   642.000      2.69000e-01     -1.17632e-09      1.14874e-11
   643.000      2.66000e-01     -2.86471e-09     -4.99340e-11
   644.000      2.64000e-01     -2.57484e-09     -4.82564e-11
   645.000      2.61000e-01     -1.79141e-09     -4.65024e-13
   646.000      2.57000e-01     -1.64267e-09     -3.24052e-11
   647.000      2.53000e-01     -1.39248e-09      1.08683e-11
   648.000      2.50000e-01     -1.68019e-09     -1.59058e-11
   649.000      2.46000e-01     -2.30780e-09     -4.15171e-11
   650.000      2.42000e-01     -1.49038e-09     -8.54724e-12
   651.000      2.38000e-01     -2.41954e-10      5.97180e-11
   652.000      2.33000e-01     -1.66902e-09     -2.56656e-11
   653.000      2.29000e-01     -2.29663e-09     -5.12769e-11
   654.000      2.24000e-01     -8.20888e-10      7.84755e-12
   655.000      2.20000e-01     -5.99245e-10      2.54812e-11
   656.000      2.16000e-01     -1.22686e-09     -1.30104e-13
   657.000      2.13000e-01     -1.70789e-09     -3.25850e-11
   658.000      2.09000e-01     -1.90450e-09     -2.29009e-11
   659.000      2.06000e-01     -1.14963e-09     -7.49416e-13
   660.000      2.02000e-01     -1.16566e-09     -1.27304e-11
   661.000      1.99000e-01     -1.21569e-09     -9.88993e-12
   662.000      1.95000e-01     -2.03663e-09     -4.11820e-11
   663.000      1.92000e-01     -1.25320e-09      6.60941e-12
   664.000      1.88000e-01     -2.31182e-09     -5.42973e-11
   665.000      1.85000e-01      8.14083e-11      3.21162e-11
   666.000      1.81000e-01     -7.39528e-10      8.24127e-13
   667.000      1.78000e-01     -5.96233e-10      9.34533e-12
   668.000      1.74000e-01     -7.77040e-10      1.73235e-11
   669.000      1.71000e-01     -1.06475e-09     -9.45070e-12
   670.000      1.67000e-01     -8.65282e-10     -3.78401e-12
   671.000      1.64000e-01     -1.63783e-09     -3.02341e-11
   672.000      1.62000e-01     -8.12391e-10      8.72626e-12
   673.000      1.59000e-01     -1.29343e-09     -2.37286e-11
   674.000      1.57000e-01     -1.19050e-09     -1.40588e-11
   675.000      1.54000e-01     -1.05359e-09     -1.92105e-11
   676.000      1.52000e-01     -1.33094e-09     -7.22928e-12
   677.000      1.49000e-01     -1.61865e-09     -3.40034e-11
   678.000      1.47000e-01      1.16254e-10      2.62554e-11
   679.000      1.44000e-01     -9.54180e-10     -7.86287e-12
   680.000      1.42000e-01     -8.51257e-10      1.80692e-12
   681.000      1.39000e-01     -1.73474e-09     -4.03035e-11
   682.000      1.35000e-01     -7.23997e-10     -1.65288e-12
   683.000      1.32000e-01     -1.28742e-09     -2.41282e-11
   684.000      1.28000e-01     -1.19251e-09     -2.04489e-11
   685.000      1.25000e-01     -8.40094e-10     -7.95291e-12
   686.000      1.22000e-01     -6.88899e-10     -2.84671e-13
   687.000      1.20000e-01     -4.81414e-10      1.13725e-11
   688.000      1.17000e-01     -2.47834e-10      9.06118e-12
   689.000      1.15000e-01     -2.41574e-10      1.58906e-11
   690.000      1.12000e-01     -4.10444e-10      3.92377e-12
   691.000      1.10000e-01     -2.99622e-10      1.27406e-11
   692.000      1.08000e-01     -6.13428e-10     -6.50521e-14
   693.000      1.06000e-01     -6.07168e-10      6.76438e-12
   694.000      1.04000e-01     -1.16072e-10      1.32697e-11
   695.000      1.02000e-01     -7.27766e-10     -7.20402e-12
   696.000      1.00000e-01     -1.04157e-09     -2.00097e-11
   697.000      9.80000e-02     -6.32861e-10     -3.52472e-12
   698.000      9.60000e-02     -6.26602e-10      3.30471e-12
   699.000      9.40000e-02     -1.15591e-09     -2.71486e-11
   700.000      9.20000e-02     -7.47199e-10     -1.06637e-11
   701.000      9.04000e-02     -1.09807e-09     -2.34074e-11
   702.000      8.88000e-02     -5.25193e-10     -2.03273e-12
   703.000      8.72000e-02     -1.75721e-10      2.54720e-12
   704.000      8.56000e-02     -8.10199e-10     -5.04468e-12
   705.000      8.40000e-02     -5.57390e-10     -3.30511e-12
   706.000      8.26000e-02     -6.73281e-10     -1.01964e-11
   707.000      8.12000e-02     -3.83533e-10     -5.95675e-13
   708.000      7.98000e-02     -5.92899e-10     -3.49085e-12
   709.000      7.84000e-02     -5.59846e-10     -6.54806e-12
   710.000      7.70000e-02     -5.26793e-10     -9.60526e-12
   711.000      7.54000e-02     -5.68683e-10     -8.69736e-12
   712.000      7.38000e-02      4.19037e-12      1.26773e-11
   713.000      7.22000e-02     -5.47902e-10     -4.89416e-12
   714.000      7.06000e-02     -1.87342e-10      5.66926e-12
   715.000      6.90000e-02     -3.25895e-10      3.73680e-12
   716.000      6.78000e-02     -3.63654e-10     -2.83122e-13
   717.000      6.66000e-02     -9.24371e-11      9.34855e-12
   718.000      6.54000e-02     -3.75803e-10     -1.34579e-12
   719.000      6.42000e-02     -1.04586e-10      8.28588e-12
   720.000      6.30000e-02     -4.51321e-10     -9.38564e-12
   721.000      6.18000e-02     -4.77992e-10     -7.42209e-12
   722.000      6.06000e-02     -4.08000e-10     -2.61817e-12
   723.000      5.94000e-02     -4.94091e-10     -8.05827e-12
   724.000      5.82000e-02     -3.71818e-10     -2.26066e-12
   725.000      5.70000e-02     -3.57296e-10     -5.28689e-12
   726.000      5.61000e-02     -2.88960e-10      6.03463e-14
   727.000      5.52000e-02     -4.28987e-10     -5.83014e-12
   728.000      5.43000e-02     -5.88127e-11      6.75873e-12
   729.000      5.34000e-02     -2.99453e-10     -1.54564e-12
   730.000      5.25000e-02     -4.39480e-10     -7.43613e-12
   731.000      5.15000e-02     -2.87406e-10     -1.87354e-13
   732.000      5.05000e-02     -2.91415e-10     -3.18260e-12
   733.000      4.95000e-02     -3.88898e-10     -2.18177e-12
   734.000      4.85000e-02     -4.45188e-10     -6.17071e-12
   735.000      4.75000e-02     -6.50422e-10     -1.39937e-11
   736.000      4.69000e-02     -1.32960e-10      2.97252e-12
   737.000      4.64000e-02     -1.61105e-10      9.78047e-13
   738.000      4.58000e-02     -4.55681e-10     -7.77670e-12
   739.000      4.53000e-02     -3.23794e-10      4.63666e-14
   740.000      4.47000e-02     -5.77178e-10     -1.36982e-11
   741.000      4.42000e-02     -3.44678e-10     -3.46122e-12
   742.000      4.36000e-02     -8.78603e-11      1.27360e-12
   743.000      4.31000e-02     -3.11687e-10     -2.55689e-12
   744.000      4.25000e-02     -2.50550e-10      3.41921e-13
   745.000      4.20000e-02     -2.78695e-10     -1.65255e-12
   746.000      4.11000e-02     -6.30089e-11      4.11051e-12
   747.000      4.02000e-02     -2.03036e-10     -1.77997e-12
   748.000      3.93000e-02     -2.89188e-10     -3.25854e-12
   749.000      3.84000e-02     -3.00868e-10     -2.82008e-12
   750.000      3.75000e-02     -1.85795e-10      5.29113e-13
   751.000      3.65000e-02     -2.90416e-10     -4.88001e-12
   752.000      3.55000e-02     -2.12814e-10      4.51730e-13
   753.000      3.45000e-02     -1.62948e-10      1.86840e-12
   754.000      3.35000e-02     -1.65362e-10      2.29138e-12
   755.000      3.25000e-02     -1.69371e-10     -7.03874e-13
   756.000      3.18000e-02      2.93788e-11      8.50839e-12
   757.000      3.12000e-02     -2.92933e-10     -4.16143e-12
   758.000      3.05000e-02     -1.72225e-10     -7.11677e-14
   759.000      2.99000e-02     -2.15270e-10     -2.79122e-12
   760.000      2.92000e-02      5.99264e-11      8.12484e-12
   761.000      2.89000e-02     -1.91544e-10     -1.87140e-12
   762.000      2.86000e-02     -2.38220e-10     -3.83489e-12
   763.000      2.82000e-02     -1.71448e-10     -1.95018e-13
   764.000      2.79000e-02     -6.72050e-11      1.46230e-12
   765.000      2.76000e-02     -2.14493e-10     -2.91507e-12
   766.000      2.75000e-02     -7.49056e-11      3.18515e-12
   767.000      2.74000e-02     -6.56402e-11      3.16966e-12
   768.000      2.72000e-02     -2.01598e-10     -3.68712e-12
   769.000      2.71000e-02     -2.92945e-10     -6.11648e-12
   770.000      2.70000e-02     -1.53357e-10     -1.62630e-14
   771.000      2.72000e-02     -2.01598e-10     -3.68712e-12
   772.000      2.74000e-02     -6.56402e-11      3.16966e-12
   773.000      2.76000e-02     -2.14493e-10     -2.91507e-12
   774.000      2.78000e-02     -1.82718e-10     -1.67715e-12
   775.000      2.80000e-02     -1.02611e-10      9.80943e-13
   776.000      2.81000e-02     -6.15701e-11      2.20337e-12
   777.000      2.82000e-02     -1.71448e-10     -1.95018e-13
   778.000      2.83000e-02     -1.30407e-10      1.02741e-12
   779.000      2.84000e-02     -3.54909e-11      6.66176e-12
   780.000      2.85000e-02     -1.78648e-10     -2.64344e-12
   781.000      2.78000e-02     -1.82718e-10     -1.67715e-12
   782.000      2.72000e-02     -2.01598e-10     -3.68712e-12
   783.000      2.65000e-02     -1.51792e-10      1.69109e-12
   784.000      2.59000e-02     -7.00590e-11      2.09501e-12
   785.000      2.52000e-02     -7.41291e-11      3.06130e-12
   786.000      2.46000e-02     -1.17174e-10      3.41247e-13
   787.000      2.39000e-02      3.53393e-12      4.43150e-12
   788.000      2.33000e-02     -1.40124e-10     -7.02426e-13
   789.000      2.26000e-02     -2.74517e-10     -5.85185e-12
   790.000      2.20000e-02     -1.63074e-10     -1.74610e-12
   791.000      2.12000e-02     -1.07572e-10      4.11640e-13
   792.000      2.05000e-02     -2.04728e-10     -3.77926e-12
   793.000      1.97000e-02     -1.62297e-10     -1.86995e-12
   794.000      1.90000e-02     -1.66367e-10     -9.03660e-13
   795.000      1.82000e-02     -6.33312e-11      9.65148e-13
   796.000      1.78000e-02     -1.37978e-10     -1.97235e-12
   797.000      1.74000e-02     -9.81439e-11     -5.38436e-13
   798.000      1.71000e-02     -1.07584e-10     -1.54342e-12
   799.000      1.67000e-02     -1.42222e-10     -2.02653e-12
   800.000      1.63000e-02     -1.02388e-10     -5.92617e-13
   801.000      1.65000e-02     -1.60927e-10     -3.01602e-12
   802.000      1.68000e-02     -7.42434e-11      1.40186e-12
   803.000      1.70000e-02     -5.83102e-11      8.95478e-13
   804.000      1.73000e-02     -1.76421e-10     -2.71938e-12
   805.000      1.75000e-02     -1.47417e-10     -2.97733e-12
   806.000      1.78000e-02     -1.37978e-10     -1.97235e-12
   807.000      1.81000e-02     -2.31923e-10     -4.87712e-12
   808.000      1.84000e-02     -2.62491e-10     -6.32652e-12
   809.000      1.87000e-02     -1.52438e-10     -2.90766e-12
   810.000      1.90000e-02     -1.66367e-10     -9.03660e-13
   811.000      1.89000e-02     -1.06795e-10      2.87790e-13
   812.000      1.88000e-02     -1.24468e-10     -1.93366e-12
   813.000      1.87000e-02     -1.52438e-10     -2.90766e-12
   814.000      1.86000e-02     -7.62272e-11      1.73719e-12
   815.000      1.85000e-02     -9.38995e-11     -4.84256e-13
   816.000      1.82000e-02     -6.33312e-11      9.65148e-13
   817.000      1.79000e-02     -5.97007e-11      2.08591e-13
   818.000      1.76000e-02     -1.29745e-10     -7.55883e-13
   819.000      1.73000e-02     -1.76421e-10     -2.71938e-12
   820.000      1.70000e-02     -5.83102e-11      8.95478e-13
   821.000      1.66000e-02     -1.59894e-10     -4.24798e-12
   822.000      1.63000e-02     -1.02388e-10     -5.92617e-13
   823.000      1.59000e-02      1.46894e-11      4.25420e-12
   824.000      1.56000e-02     -1.46467e-10     -2.08071e-12
   825.000      1.52000e-02     -1.58724e-10     -3.45623e-12
   826.000      1.50000e-02     -6.01768e-11      1.42156e-12
   827.000      1.48000e-02     -1.30973e-10     -2.37736e-12
   828.000      1.46000e-02      2.99632e-11      4.06242e-12
   829.000      1.44000e-02     -1.43230e-10     -3.75287e-12
   830.000      1.42000e-02     -1.77454e-11      3.33088e-12
   831.000      1.42000e-02     -1.77454e-11      3.33088e-12
   832.000      1.41000e-02     -8.57241e-11     -9.75089e-14
   833.000      1.41000e-02     -8.57241e-11     -9.75089e-14
   834.000      1.40000e-02     -5.13055e-11      4.90472e-13
   835.000      1.40000e-02     -5.13055e-11      4.90472e-13
   836.000      1.40000e-02     -5.13055e-11      4.90472e-13
   837.000      1.40000e-02     -5.13055e-11      4.90472e-13
   838.000      1.40000e-02     -5.13055e-11      4.90472e-13
   839.000      1.40000e-02     -5.13055e-11      4.90472e-13
   840.000      1.40000e-02     -5.13055e-11      4.90472e-13
   841.000      1.40000e-02     -5.13055e-11      4.90472e-13
   842.000      1.41000e-02     -8.57241e-11     -9.75089e-14
   843.000      1.41000e-02     -8.57241e-11     -9.75089e-14
   844.000      1.42000e-02     -1.77454e-11      3.33088e-12
   845.000      1.42000e-02     -1.77454e-11      3.33088e-12
   846.000      1.43000e-02     -1.19110e-10     -1.91745e-12
   847.000      1.43000e-02     -1.19110e-10     -1.91745e-12
   848.000      1.44000e-02     -1.43230e-10     -3.75287e-12
   849.000      1.44000e-02     -1.43230e-10     -3.75287e-12
   850.000      1.45000e-02     -1.52496e-10     -3.73738e-12
