# wavelength       SIGMA = C0 + C1*T + C2*T**2 um^2         wavelength
# (vacuo nm)         C0          C1(T)       C2(T^2)         (air nm)
#
   245.092      0.99079E+03 -0.20360E+00 -0.23945E-02       245.018  
   245.142      0.99429E+03 -0.24979E+00 -0.24517E-02       245.068  
   245.192      0.99607E+03 -0.20722E+00 -0.13362E-02       245.118  
   245.242      0.10031E+04 -0.25282E+00 -0.16716E-02       245.168  
   245.292      0.10079E+04 -0.33523E+00 -0.37362E-02       245.218  
   245.342      0.10096E+04 -0.24526E+00 -0.16781E-02       245.268  
   245.392      0.10116E+04 -0.31476E+00 -0.29391E-02       245.318  
   245.442      0.10142E+04 -0.28148E+00 -0.25005E-02       245.368  
   245.492      0.10172E+04 -0.23125E+00 -0.19330E-02       245.418  
   245.542      0.10195E+04 -0.24561E+00 -0.23336E-02       245.468  
   245.592      0.10197E+04 -0.17228E+00 -0.89188E-03       245.518  
   245.642      0.10228E+04 -0.24731E+00 -0.27099E-02       245.568  
   245.692      0.10248E+04 -0.20119E+00 -0.26518E-02       245.618  
   245.743      0.10242E+04 -0.18582E+00 -0.15582E-02       245.668  
   245.793      0.10286E+04 -0.26380E+00 -0.35930E-02       245.718  
   245.842      0.10264E+04 -0.21905E+00 -0.21911E-02       245.768  
   245.892      0.10252E+04 -0.15708E+00 -0.16244E-02       245.818  
   245.943      0.10275E+04 -0.25533E+00 -0.37858E-02       245.868  
   245.992      0.10245E+04 -0.22031E+00 -0.22666E-02       245.918  
   246.042      0.10269E+04 -0.11365E+00 -0.12379E-02       245.968  
   246.093      0.10315E+04 -0.29444E+00 -0.53959E-02       246.018  
   246.142      0.10246E+04 -0.19847E+00 -0.24094E-02       246.068  
   246.193      0.10264E+04 -0.16311E+00 -0.23214E-02       246.118  
   246.242      0.10271E+04 -0.17678E+00 -0.28508E-02       246.168  
   246.293      0.10289E+04 -0.21755E+00 -0.42395E-02       246.218  
   246.342      0.10266E+04 -0.16379E+00 -0.31139E-02       246.268  
   246.393      0.10237E+04 -0.11109E+00 -0.11813E-02       246.318  
   246.443      0.10266E+04 -0.14372E+00 -0.28874E-02       246.368  
   246.492      0.10248E+04 -0.13448E+00 -0.14342E-02       246.418  
   246.542      0.10279E+04 -0.14961E+00 -0.24362E-02       246.468  
   246.593      0.10245E+04 -0.96975E-01 -0.18710E-03       246.518  
   246.643      0.10238E+04 -0.10407E+00 -0.58825E-03       246.568  
   246.692      0.10280E+04 -0.17230E+00 -0.21388E-02       246.618  
   246.742      0.10304E+04 -0.21424E+00 -0.34799E-02       246.668  
   246.792      0.10292E+04 -0.15185E+00 -0.20786E-02       246.718  
   246.843      0.10305E+04 -0.19492E+00 -0.23046E-02       246.768  
   246.893      0.10310E+04 -0.10485E+00 -0.61933E-03       246.818  
   246.943      0.10352E+04 -0.14845E+00 -0.19376E-02       246.868  
   246.993      0.10345E+04 -0.12046E+00  0.54033E-05       246.918  
   247.043      0.10379E+04 -0.22185E+00 -0.13585E-02       246.968  
   247.093      0.10426E+04 -0.24862E+00 -0.21019E-02       247.018  
   247.142      0.10445E+04 -0.23180E+00 -0.15744E-02       247.068  
   247.193      0.10454E+04 -0.14564E+00 -0.37107E-04       247.118  
   247.243      0.10505E+04 -0.19003E+00 -0.97211E-03       247.168  
   247.293      0.10523E+04 -0.16930E+00 -0.31194E-03       247.218  
   247.343      0.10546E+04 -0.12068E+00  0.53658E-03       247.268  
   247.392      0.10594E+04 -0.23550E+00 -0.25998E-02       247.318  
   247.443      0.10594E+04 -0.14234E+00 -0.60723E-03       247.368  
   247.493      0.10595E+04 -0.13684E+00 -0.41093E-03       247.418  
   247.543      0.10630E+04 -0.21827E+00 -0.19502E-02       247.468  
   247.593      0.10648E+04 -0.23271E+00 -0.30493E-02       247.518  
   247.643      0.10648E+04 -0.20095E+00 -0.17812E-02       247.568  
   247.693      0.10697E+04 -0.22252E+00 -0.44171E-02       247.618  
   247.743      0.10636E+04 -0.36300E-01  0.18372E-02       247.668  
   247.793      0.10657E+04 -0.10084E+00  0.80786E-04       247.718  
   247.843      0.10686E+04 -0.11726E+00  0.16924E-04       247.768  
   247.893      0.10645E+04 -0.59782E-01  0.11339E-02       247.818  
   247.943      0.10676E+04 -0.84157E-01 -0.11471E-02       247.868  
   247.993      0.10643E+04 -0.49793E-01  0.44761E-03       247.918  
   248.043      0.10651E+04 -0.75071E-01 -0.15750E-03       247.968  
   248.093      0.10641E+04 -0.69752E-01 -0.16483E-02       248.018  
   248.143      0.10626E+04 -0.10225E+00 -0.11814E-02       248.068  
   248.193      0.10610E+04 -0.10412E+00 -0.94300E-03       248.118  
   248.243      0.10606E+04 -0.96716E-01 -0.50715E-03       248.168  
   248.293      0.10656E+04 -0.22545E+00 -0.36000E-02       248.218  
   248.343      0.10616E+04 -0.63872E-01 -0.33128E-03       248.268  
   248.393      0.10688E+04 -0.21758E+00 -0.33498E-02       248.318  
   248.443      0.10674E+04 -0.14946E+00 -0.12023E-02       248.368  
   248.493      0.10694E+04 -0.94811E-01  0.15755E-03       248.418  
   248.543      0.10726E+04 -0.11925E+00  0.21310E-03       248.468  
   248.593      0.10781E+04 -0.14681E+00 -0.80490E-03       248.518  
   248.643      0.10828E+04 -0.26600E+00 -0.26722E-02       248.568  
   248.693      0.10852E+04 -0.19980E+00 -0.11461E-02       248.618  
   248.743      0.10920E+04 -0.30387E+00 -0.21987E-02       248.668  
   248.793      0.10937E+04 -0.24255E+00 -0.14286E-02       248.718  
   248.843      0.10947E+04 -0.19917E+00 -0.65664E-04       248.768  
   248.893      0.10967E+04 -0.16977E+00  0.21074E-03       248.818  
   248.943      0.11081E+04 -0.41411E+00 -0.68327E-02       248.868  
   248.993      0.11044E+04 -0.22000E+00 -0.14616E-02       248.918  
   249.043      0.11051E+04 -0.21727E+00 -0.13387E-02       248.968  
   249.093      0.11013E+04 -0.13746E+00  0.12633E-02       249.018  
   249.143      0.11021E+04 -0.13650E+00  0.44909E-03       249.068  
   249.193      0.11016E+04 -0.11511E+00  0.12959E-03       249.118  
   249.243      0.11044E+04 -0.15668E+00 -0.15135E-02       249.168  
   249.293      0.11017E+04 -0.17565E+00 -0.17477E-02       249.218  
   249.343      0.11015E+04 -0.13975E+00 -0.18195E-02       249.268  
   249.393      0.11007E+04 -0.15932E+00 -0.63639E-03       249.318  
   249.443      0.11025E+04 -0.12671E+00 -0.12836E-02       249.368  
   249.494      0.10973E+04 -0.78197E-01  0.93960E-03       249.418  
   249.543      0.11029E+04 -0.15282E+00 -0.13897E-02       249.468  
   249.593      0.11005E+04 -0.47175E-01  0.13919E-02       249.518  
   249.643      0.11086E+04 -0.22045E+00 -0.25688E-02       249.568  
   249.693      0.11097E+04 -0.18251E+00 -0.22875E-02       249.618  
   249.743      0.11163E+04 -0.27500E+00 -0.38861E-02       249.668  
   249.793      0.11138E+04 -0.23784E+00 -0.24173E-02       249.718  
   249.843      0.11128E+04 -0.13594E+00 -0.52227E-03       249.768  
   249.893      0.11130E+04 -0.15529E+00 -0.54696E-03       249.818  
   249.943      0.11158E+04 -0.19671E+00 -0.16384E-02       249.868  
   249.988      0.11154E+04 -0.19226E+00 -0.17004E-02       249.912  
   250.038      0.11163E+04 -0.13503E+00 -0.74660E-03       249.962  
   250.088      0.11157E+04 -0.16280E+00 -0.80246E-03       250.012  
   250.138      0.11175E+04 -0.18476E+00 -0.29182E-02       250.062  
   250.188      0.11136E+04 -0.10454E+00 -0.10716E-02       250.112  
   250.237      0.11134E+04 -0.14397E+00 -0.17076E-02       250.162  
   250.287      0.11085E+04 -0.67394E-01  0.21277E-03       250.212  
   250.337      0.11065E+04 -0.33063E-01  0.57225E-04       250.262  
   250.387      0.11057E+04 -0.35867E-01  0.38340E-03       250.312  
   250.438      0.11046E+04 -0.67087E-01 -0.43571E-03       250.362  
   250.487      0.11035E+04 -0.42714E-01 -0.50605E-03       250.412  
   250.537      0.11018E+04 -0.10622E-02  0.32103E-03       250.462  
   250.588      0.11052E+04 -0.13145E+00 -0.28109E-02       250.512  
   250.637      0.11025E+04 -0.29729E-01 -0.38953E-03       250.562  
   250.688      0.11014E+04 -0.42298E-02  0.45596E-04       250.612  
   250.738      0.11032E+04 -0.90402E-01 -0.17790E-02       250.662  
   250.786      0.11019E+04 -0.65068E-01 -0.13255E-03       250.711  
   250.837      0.11020E+04 -0.12487E-01  0.79516E-03       250.761  
   250.886      0.11055E+04 -0.15755E+00 -0.21460E-02       250.811  
   250.937      0.11019E+04 -0.73839E-01  0.65051E-04       250.861  
   250.986      0.11067E+04 -0.14639E+00 -0.16006E-02       250.911  
   251.037      0.11069E+04 -0.10730E+00 -0.24470E-03       250.961  
   251.087      0.11066E+04 -0.10314E+00 -0.21538E-03       251.011  
   251.136      0.11102E+04 -0.16396E+00 -0.17817E-02       251.061  
   251.187      0.11089E+04 -0.72916E-01 -0.16930E-04       251.111  
   251.237      0.11133E+04 -0.15458E+00 -0.16320E-02       251.161  
   251.287      0.11151E+04 -0.14004E+00 -0.60576E-03       251.211  
   251.336      0.11182E+04 -0.23757E+00 -0.19230E-02       251.261  
   251.386      0.11241E+04 -0.19355E+00 -0.14628E-02       251.311  
   251.437      0.11286E+04 -0.19758E+00 -0.12465E-02       251.361  
   251.487      0.11335E+04 -0.16503E+00  0.18240E-03       251.411  
   251.537      0.11400E+04 -0.26755E+00 -0.15749E-02       251.461  
   251.587      0.11439E+04 -0.23461E+00 -0.10887E-02       251.511  
   251.637      0.11489E+04 -0.28229E+00 -0.21364E-02       251.561  
   251.687      0.11520E+04 -0.21021E+00 -0.14643E-02       251.611  
   251.737      0.11519E+04 -0.23381E+00 -0.87930E-03       251.661  
   251.787      0.11527E+04 -0.17670E+00  0.17066E-03       251.711  
   251.837      0.11547E+04 -0.19077E+00 -0.13330E-02       251.761  
   251.887      0.11539E+04 -0.18158E+00 -0.83704E-03       251.811  
   251.937      0.11490E+04 -0.13715E+00  0.38355E-03       251.861  
   251.987      0.11500E+04 -0.91979E-01 -0.34612E-03       251.911  
   252.037      0.11491E+04 -0.72100E-01 -0.29279E-03       251.961  
   252.087      0.11462E+04 -0.94565E-01 -0.62813E-03       252.011  
   252.137      0.11440E+04  0.97912E-02  0.27504E-03       252.061  
   252.187      0.11428E+04 -0.88942E-01 -0.60858E-03       252.111  
   252.237      0.11421E+04 -0.44648E-01 -0.56361E-03       252.161  
   252.288      0.11349E+04 -0.87727E-01 -0.13834E-03       252.212  
   252.338      0.11361E+04 -0.12848E+00 -0.14315E-02       252.262  
   252.388      0.11339E+04 -0.10879E+00 -0.66838E-03       252.312  
   252.438      0.11316E+04  0.49406E-02  0.56216E-03       252.362  
   252.488      0.11292E+04  0.28385E-01  0.12201E-02       252.412  
   252.538      0.11258E+04 -0.43284E-01  0.43315E-03       252.462  
   252.588      0.11297E+04 -0.14842E+00 -0.25494E-02       252.512  
   252.638      0.11304E+04 -0.18612E+00 -0.35458E-02       252.562  
   252.688      0.11271E+04 -0.13122E+00 -0.20831E-02       252.612  
   252.738      0.11275E+04 -0.14664E+00 -0.20385E-02       252.662  
   252.788      0.11287E+04 -0.12656E+00 -0.18495E-02       252.712  
   252.838      0.11261E+04 -0.12841E+00 -0.74380E-03       252.762  
   252.888      0.11299E+04 -0.20734E+00 -0.33197E-02       252.812  
   252.938      0.11349E+04 -0.23674E+00 -0.45042E-02       252.862  
   252.988      0.11354E+04 -0.17829E+00 -0.28108E-02       252.912  
   253.038      0.11311E+04 -0.13594E+00 -0.49653E-03       252.962  
   253.088      0.11306E+04 -0.31572E+00 -0.23716E-02       253.012  
   253.138      0.11336E+04 -0.22095E+00 -0.22799E-02       253.062  
   253.188      0.11365E+04 -0.19146E+00 -0.29688E-02       253.112  
   253.238      0.11383E+04 -0.17464E+00 -0.19671E-02       253.162  
   253.288      0.11379E+04 -0.90986E-02  0.24013E-03       253.212  
   253.338      0.11360E+04 -0.10737E+00 -0.12433E-03       253.262  
   253.388      0.11377E+04 -0.93560E-01 -0.13423E-03       253.312  
   253.438      0.11449E+04 -0.20162E+00 -0.28117E-02       253.362  
   253.488      0.11423E+04 -0.95732E-01  0.16593E-05       253.412  
   253.538      0.11453E+04 -0.13331E+00 -0.95064E-03       253.462  
   253.588      0.11466E+04 -0.60601E-01  0.74707E-03       253.512  
   253.638      0.11489E+04 -0.16110E+00 -0.10387E-02       253.562  
   253.688      0.11517E+04 -0.19734E+00 -0.21174E-02       253.612  
   253.738      0.11498E+04 -0.16031E+00 -0.13590E-02       253.662  
   253.788      0.11519E+04 -0.19476E+00 -0.21454E-02       253.712  
   253.838      0.11504E+04 -0.17343E+00 -0.99239E-03       253.762  
   253.888      0.11523E+04 -0.20167E+00 -0.23560E-02       253.812  
   253.938      0.11491E+04 -0.97042E-01  0.63159E-03       253.862  
   253.988      0.11521E+04 -0.19917E+00 -0.19228E-02       253.912  
   254.039      0.11504E+04 -0.18508E+00 -0.15167E-02       253.962  
   254.088      0.11474E+04 -0.56524E-01  0.11347E-02       254.012  
   254.138      0.11463E+04 -0.97971E-01  0.19847E-04       254.062  
   254.188      0.11444E+04 -0.53452E-01  0.14528E-02       254.112  
   254.238      0.11437E+04 -0.95079E-01 -0.41139E-03       254.162  
   254.289      0.11439E+04 -0.12834E+00 -0.15393E-02       254.212  
   254.338      0.11371E+04 -0.10826E-01  0.11550E-02       254.262  
   254.388      0.11311E+04  0.89863E-02  0.25487E-02       254.312  
   254.439      0.11314E+04 -0.34400E-01  0.15938E-03       254.362  
   254.489      0.11332E+04 -0.74157E-01 -0.16312E-02       254.412  
   254.538      0.11310E+04 -0.79066E-02 -0.49317E-03       254.462  
   254.588      0.11304E+04 -0.16696E-01 -0.89427E-03       254.512  
   254.638      0.11285E+04  0.27267E-01  0.50111E-03       254.562  
   254.688      0.11312E+04 -0.54457E-01 -0.12027E-02       254.612  
   254.738      0.11298E+04 -0.62089E-01 -0.60513E-03       254.662  
   254.789      0.11341E+04 -0.63086E-01 -0.84976E-03       254.712  
   254.839      0.11363E+04 -0.82569E-01 -0.11591E-02       254.762  
   254.889      0.11402E+04 -0.14334E+00 -0.22161E-02       254.812  
   254.939      0.11455E+04 -0.12736E+00 -0.18393E-02       254.862  
   254.988      0.11491E+04 -0.21605E+00 -0.22825E-02       254.912  
   255.038      0.11508E+04 -0.10735E+00  0.61432E-04       254.962  
   255.088      0.11557E+04 -0.15225E+00 -0.14200E-02       255.012  
   255.139      0.11570E+04 -0.10521E+00  0.10508E-02       255.062  
   255.189      0.11638E+04 -0.19782E+00 -0.99368E-03       255.112  
   255.239      0.11710E+04 -0.31057E+00 -0.43793E-02       255.162  
   255.288      0.11714E+04 -0.24902E+00 -0.17728E-02       255.212  
   255.339      0.11693E+04 -0.12777E+00 -0.28568E-04       255.262  
   255.389      0.11701E+04 -0.16177E+00 -0.28083E-03       255.312  
   255.439      0.11707E+04 -0.17471E+00 -0.15161E-02       255.362  
   255.489      0.11700E+04 -0.16443E+00 -0.12595E-02       255.412  
   255.539      0.11623E+04 -0.47450E-01  0.20866E-02       255.462  
   255.588      0.11643E+04 -0.80458E-01  0.50200E-03       255.512  
   255.639      0.11608E+04  0.11897E-01  0.12143E-02       255.562  
   255.688      0.11591E+04 -0.54491E-01  0.24602E-03       255.612  
   255.739      0.11549E+04 -0.52507E-02  0.68666E-03       255.662  
   255.788      0.11563E+04 -0.76917E-01 -0.70991E-03       255.712  
   255.839      0.11520E+04 -0.14598E-01  0.49709E-03       255.762  
   255.889      0.11518E+04 -0.21484E-01  0.11532E-03       255.812  
   255.938      0.11509E+04 -0.87044E-01 -0.14233E-02       255.862  
   255.989      0.11473E+04 -0.40586E-01 -0.19779E-03       255.912  
   256.039      0.11446E+04 -0.16197E-01  0.14395E-03       255.962  
   256.088      0.11428E+04  0.32399E-02 -0.33092E-03       256.011  
   256.138      0.11418E+04 -0.36571E-01 -0.48526E-03       256.061  
   256.188      0.11374E+04  0.69806E-02  0.53278E-03       256.111  
   256.238      0.11346E+04  0.73487E-02  0.50610E-03       256.161  
   256.288      0.11337E+04 -0.31612E-01 -0.58030E-03       256.211  
   256.338      0.11294E+04  0.17243E-01  0.27403E-03       256.261  
   256.388      0.11243E+04  0.12269E+00  0.23234E-02       256.311  
   256.438      0.11281E+04 -0.17340E-01 -0.18202E-02       256.361  
   256.488      0.11185E+04  0.14366E+00  0.22950E-02       256.411  
   256.538      0.11204E+04 -0.58128E-01 -0.23530E-02       256.461  
   256.588      0.11205E+04 -0.16257E+00 -0.37025E-02       256.511  
   256.638      0.11182E+04 -0.71433E-01 -0.20017E-02       256.561  
   256.688      0.11177E+04 -0.34884E-01 -0.46218E-03       256.611  
   256.738      0.11183E+04 -0.59689E-01 -0.58981E-03       256.661  
   256.788      0.11187E+04 -0.87265E-02  0.41610E-04       256.711  
   256.838      0.11190E+04 -0.28874E-02 -0.19756E-03       256.761  
   256.888      0.11223E+04 -0.11077E+00 -0.20319E-02       256.811  
   256.938      0.11257E+04 -0.11714E+00 -0.13733E-02       256.861  
   256.988      0.11271E+04 -0.96941E-01 -0.84443E-03       256.911  
   257.038      0.11281E+04 -0.76958E-01  0.13121E-03       256.961  
   257.088      0.11288E+04 -0.69336E-01 -0.46819E-04       257.011  
   257.138      0.11319E+04 -0.12457E+00 -0.72387E-03       257.061  
   257.188      0.11301E+04 -0.57558E-01  0.16845E-03       257.111  
   257.238      0.11300E+04 -0.10337E+00 -0.35863E-03       257.161  
   257.288      0.11278E+04 -0.25889E-01  0.13028E-02       257.211  
   257.338      0.11276E+04 -0.58797E-01  0.32096E-03       257.261  
   257.388      0.11252E+04 -0.71319E-01  0.10362E-03       257.311  
   257.438      0.11213E+04  0.13704E-01  0.14706E-02       257.361  
   257.488      0.11188E+04 -0.10199E+00 -0.75510E-04       257.411  
   257.538      0.11185E+04 -0.42652E-01  0.85792E-04       257.461  
   257.588      0.11164E+04  0.16925E-01  0.84876E-03       257.511  
   257.638      0.11147E+04  0.40972E-02  0.69421E-03       257.561  
   257.688      0.11144E+04 -0.24775E-01  0.53661E-03       257.611  
   257.738      0.11148E+04  0.46903E-02  0.67637E-04       257.661  
   257.788      0.11162E+04 -0.83983E-01 -0.11354E-02       257.711  
   257.838      0.11141E+04  0.42968E-01  0.11313E-02       257.761  
   257.888      0.11146E+04 -0.22989E-01 -0.33431E-03       257.811  
   257.938      0.11138E+04 -0.12612E-01  0.23377E-03       257.861  
   257.988      0.11100E+04  0.57872E-01  0.14629E-02       257.911  
   258.039      0.11119E+04 -0.35314E-01 -0.45757E-03       257.961  
   258.089      0.11114E+04  0.10030E-01  0.70310E-03       258.011  
   258.138      0.11135E+04 -0.85901E-01 -0.60466E-03       258.061  
   258.188      0.11157E+04 -0.98312E-01 -0.95092E-03       258.111  
   258.238      0.11190E+04 -0.19392E-01  0.54653E-03       258.161  
   258.288      0.11222E+04 -0.82345E-01  0.82966E-03       258.211  
   258.339      0.11257E+04 -0.97351E-01 -0.18456E-03       258.261  
   258.389      0.11320E+04 -0.21052E+00 -0.20695E-02       258.311  
   258.438      0.11375E+04 -0.17710E+00 -0.10565E-02       258.361  
   258.488      0.11419E+04 -0.19100E+00 -0.79559E-03       258.411  
   258.538      0.11473E+04 -0.18507E+00 -0.12865E-02       258.461  
   258.588      0.11520E+04 -0.29675E+00 -0.41291E-02       258.511  
   258.639      0.11498E+04 -0.14350E+00  0.68122E-03       258.561  
   258.689      0.11552E+04 -0.18615E+00 -0.11146E-02       258.611  
   258.738      0.11503E+04 -0.62400E-01  0.20184E-02       258.661  
   258.788      0.11493E+04 -0.79481E-01  0.13382E-02       258.711  
   258.839      0.11494E+04 -0.79170E-01  0.12134E-02       258.761  
   258.888      0.11458E+04  0.12822E-01  0.26106E-02       258.811  
   258.939      0.11431E+04 -0.10506E-01  0.21721E-02       258.861  
   258.988      0.11400E+04  0.18891E-01  0.23414E-02       258.911  
   259.038      0.11372E+04 -0.37741E-01  0.82131E-03       258.961  
   259.088      0.11347E+04 -0.72324E-02  0.74320E-03       259.011  
   259.139      0.11278E+04  0.19666E-01  0.16510E-02       259.061  
   259.188      0.11183E+04  0.15296E+00  0.39364E-02       259.111  
   259.239      0.11112E+04  0.13054E+00  0.23003E-02       259.161  
   259.288      0.11056E+04  0.16425E+00  0.29821E-02       259.211  
   259.339      0.11011E+04  0.13542E+00  0.20621E-02       259.261  
   259.389      0.10931E+04  0.15324E+00  0.29422E-02       259.311  
   259.438      0.10892E+04  0.16379E+00  0.22292E-02       259.361  
   259.489      0.10830E+04  0.18349E+00  0.15185E-02       259.411  
   259.539      0.10774E+04  0.13808E+00  0.88198E-03       259.461  
   259.589      0.10746E+04  0.97144E-01  0.51089E-03       259.511  
   259.638      0.10717E+04  0.12058E+00  0.21383E-03       259.561  
   259.688      0.10665E+04  0.11089E+00  0.81963E-03       259.611  
   259.739      0.10649E+04  0.15037E+00  0.16721E-02       259.661  
   259.789      0.10662E+04  0.39069E-01 -0.18064E-02       259.711  
   259.839      0.10622E+04  0.15380E+00  0.12658E-02       259.761  
   259.889      0.10630E+04  0.33393E-01 -0.84781E-05       259.811  
   259.939      0.10627E+04  0.42956E-01  0.31218E-03       259.861  
   259.989      0.10645E+04 -0.94161E-02 -0.58656E-03       259.911  
   260.039      0.10663E+04  0.14032E-01 -0.45915E-03       259.961  
   260.089      0.10721E+04 -0.61429E-01 -0.21349E-02       260.011  
   260.139      0.10714E+04  0.35691E-01  0.38758E-03       260.061  
   260.189      0.10789E+04 -0.56600E-01 -0.46596E-03       260.111  
   260.238      0.10847E+04 -0.13728E+00 -0.21497E-02       260.161  
   260.289      0.10914E+04 -0.22604E+00 -0.36825E-02       260.211  
   260.339      0.10904E+04 -0.73138E-01  0.81329E-03       260.261  
   260.389      0.10977E+04 -0.24156E+00 -0.35068E-02       260.311  
   260.439      0.11000E+04 -0.17421E+00 -0.95246E-03       260.361  
   260.489      0.11039E+04 -0.18581E+00 -0.14279E-02       260.411  
   260.539      0.11058E+04 -0.20133E+00 -0.11818E-02       260.461  
   260.589      0.11109E+04 -0.26640E+00 -0.35775E-02       260.511  
   260.639      0.11092E+04 -0.20801E+00 -0.15732E-02       260.561  
   260.689      0.11112E+04 -0.21957E+00 -0.28328E-02       260.611  
   260.739      0.11092E+04 -0.17018E+00 -0.10489E-02       260.661  
   260.789      0.11042E+04 -0.78982E-01  0.24882E-04       260.711  
   260.839      0.11021E+04 -0.98090E-02  0.15209E-02       260.761  
   260.889      0.10970E+04 -0.59609E-01  0.56776E-03       260.811  
   260.939      0.10936E+04 -0.10262E-01  0.12048E-02       260.861  
   260.989      0.10884E+04 -0.36149E-01 -0.14507E-03       260.911  
   261.039      0.10879E+04 -0.61228E-01 -0.16999E-02       260.961  
   261.089      0.10798E+04  0.57942E-01  0.62035E-03       261.011  
   261.139      0.10754E+04  0.51577E-01 -0.65484E-03       261.061  
   261.189      0.10693E+04  0.63987E-01 -0.11319E-02       261.111  
   261.239      0.10620E+04  0.10265E+00  0.60514E-03       261.161  
   261.289      0.10595E+04  0.10433E+00 -0.17392E-03       261.211  
   261.339      0.10537E+04  0.14370E+00  0.45187E-03       261.261  
   261.389      0.10512E+04  0.79513E-01 -0.27704E-03       261.311  
   261.439      0.10479E+04  0.66664E-01 -0.95167E-03       261.361  
   261.489      0.10466E+04  0.14992E-01 -0.16610E-02       261.411  
   261.539      0.10453E+04  0.48154E-01 -0.39763E-03       261.461  
   261.589      0.10455E+04 -0.12135E-01 -0.30030E-02       261.511  
   261.639      0.10420E+04  0.40755E-01 -0.14970E-03       261.561  
   261.689      0.10412E+04  0.89181E-01  0.12314E-02       261.611  
   261.739      0.10423E+04 -0.42845E-01 -0.17147E-02       261.661  
   261.789      0.10394E+04  0.55969E-01  0.15456E-02       261.711  
   261.839      0.10415E+04  0.29808E-01  0.12736E-02       261.761  
   261.889      0.10457E+04 -0.47225E-01 -0.18323E-02       261.811  
   261.939      0.10433E+04 -0.27846E-01 -0.32398E-03       261.861  
   261.989      0.10467E+04 -0.54790E-01 -0.17293E-02       261.911  
   262.039      0.10473E+04 -0.45210E-01 -0.26511E-03       261.961  
   262.089      0.10475E+04 -0.36892E-01 -0.30086E-03       262.011  
   262.139      0.10472E+04 -0.54403E-01  0.30448E-03       262.061  
   262.189      0.10515E+04 -0.12699E+00 -0.60526E-03       262.111  
   262.239      0.10547E+04 -0.10321E+00 -0.21618E-02       262.161  
   262.290      0.10554E+04 -0.11415E+00 -0.89348E-03       262.211  
   262.339      0.10568E+04 -0.13144E+00 -0.84409E-03       262.261  
   262.389      0.10600E+04 -0.13953E+00 -0.18383E-02       262.311  
   262.439      0.10618E+04 -0.15244E+00 -0.14040E-02       262.361  
   262.489      0.10605E+04 -0.15374E+00 -0.32106E-02       262.411  
   262.540      0.10597E+04 -0.87493E-01 -0.22388E-02       262.461  
   262.589      0.10557E+04 -0.13805E+00 -0.13141E-02       262.511  
   262.640      0.10532E+04 -0.13513E+00 -0.30870E-02       262.561  
   262.689      0.10483E+04 -0.59773E-01 -0.22797E-02       262.611  
   262.740      0.10463E+04 -0.85522E-01 -0.38729E-02       262.661  
   262.789      0.10422E+04 -0.92388E-01 -0.39057E-02       262.711  
   262.839      0.10337E+04  0.14764E-01 -0.20140E-02       262.761  
   262.889      0.10314E+04 -0.35085E-01 -0.38808E-02       262.811  
   262.939      0.10247E+04  0.39139E-01 -0.28763E-02       262.861  
   262.990      0.10180E+04  0.16292E-01 -0.34503E-02       262.911  
   263.040      0.10105E+04  0.74203E-01 -0.23287E-02       262.961  
   263.089      0.10083E+04  0.35596E-01 -0.32576E-02       263.011  
   263.139      0.10044E+04  0.22125E-01 -0.38056E-02       263.061  
   263.190      0.10002E+04  0.23649E-01 -0.32601E-02       263.111  
   263.240      0.99697E+03  0.11489E+00 -0.13977E-02       263.161  
   263.290      0.99432E+03  0.70495E-01 -0.26599E-02       263.211  
   263.339      0.99222E+03  0.81590E-01 -0.22077E-02       263.261  
   263.389      0.98853E+03  0.67502E-01 -0.12429E-02       263.311  
   263.439      0.98654E+03 -0.55313E-02 -0.26653E-02       263.361  
   263.489      0.98630E+03  0.54641E-01 -0.19420E-02       263.411  
   263.539      0.98188E+03  0.99017E-01 -0.79546E-03       263.461  
   263.589      0.98714E+03 -0.89252E-01 -0.48127E-02       263.511  
   263.639      0.98593E+03 -0.15685E-01 -0.29652E-02       263.561  
   263.689      0.98790E+03 -0.48616E-01 -0.27549E-02       263.611  
   263.740      0.98454E+03 -0.71952E-02  0.90777E-04       263.661  
   263.790      0.98999E+03 -0.93124E-01 -0.31211E-02       263.711  
   263.840      0.99074E+03 -0.11136E+00 -0.24361E-02       263.761  
   263.890      0.99138E+03 -0.10142E+00 -0.19347E-02       263.811  
   263.939      0.99388E+03 -0.20971E+00 -0.35125E-02       263.861  
   263.989      0.99521E+03 -0.18704E+00 -0.29979E-02       263.911  
   264.040      0.10001E+04 -0.22185E+00 -0.37712E-02       263.961  
   264.090      0.99792E+03 -0.16628E+00 -0.18837E-02       264.011  
   264.139      0.99823E+03 -0.69809E-01 -0.47334E-03       264.061  
   264.190      0.10015E+04 -0.96373E-01 -0.74214E-03       264.111  
   264.240      0.10029E+04 -0.17128E+00 -0.22855E-02       264.161  
   264.289      0.10036E+04 -0.17145E+00 -0.26131E-02       264.211  
   264.340      0.10052E+04 -0.22459E+00 -0.33596E-02       264.261  
   264.389      0.10062E+04 -0.19468E+00 -0.36620E-02       264.311  
   264.440      0.10030E+04 -0.11802E+00 -0.16319E-02       264.361  
   264.490      0.10028E+04 -0.18234E+00 -0.30884E-02       264.411  
   264.540      0.10027E+04 -0.14713E+00 -0.32738E-02       264.461  
   264.589      0.99823E+03 -0.75367E-01 -0.16720E-02       264.511  
   264.640      0.99819E+03 -0.16804E+00 -0.42067E-02       264.561  
   264.690      0.99438E+03 -0.14032E+00 -0.48328E-02       264.611  
   264.740      0.98810E+03 -0.94034E-01 -0.34549E-02       264.661  
   264.790      0.98301E+03  0.10518E-01 -0.24418E-02       264.711  
   264.840      0.97818E+03 -0.35443E-01 -0.36498E-02       264.761  
   264.890      0.97064E+03  0.81924E-01 -0.11275E-02       264.811  
   264.940      0.96661E+03  0.25365E-01 -0.36780E-02       264.861  
   264.990      0.95896E+03  0.33166E-01 -0.19417E-02       264.911  
   265.040      0.95589E+03  0.54592E-01 -0.31081E-02       264.961  
   265.090      0.95652E+03  0.25434E-01 -0.35454E-02       265.011  
   265.140      0.95498E+03  0.30641E-02 -0.40143E-02       265.061  
   265.190      0.95012E+03  0.57987E-01 -0.90221E-03       265.111  
   265.240      0.95050E+03  0.40647E-01 -0.14757E-02       265.161  
   265.290      0.94918E+03  0.24623E-01 -0.84673E-03       265.211  
   265.340      0.95362E+03  0.32910E-01 -0.16450E-02       265.261  
   265.390      0.95141E+03  0.30285E-01 -0.10976E-03       265.311  
   265.440      0.95597E+03 -0.54485E-02 -0.71160E-03       265.361  
   265.490      0.95935E+03 -0.14800E+00 -0.32561E-02       265.411  
   265.540      0.95513E+03  0.97353E-02 -0.61044E-04       265.461  
   265.590      0.95697E+03 -0.12533E+00 -0.21167E-02       265.511  
   265.640      0.96140E+03 -0.20345E+00 -0.49316E-02       265.561  
   265.690      0.95402E+03 -0.10259E-01 -0.42103E-03       265.611  
   265.740      0.95174E+03 -0.34057E-01 -0.72405E-03       265.661  
   265.790      0.94850E+03  0.71978E-01  0.81841E-03       265.711  
   265.840      0.94547E+03  0.59803E-01  0.12222E-02       265.761  
   265.890      0.94851E+03 -0.96553E-02 -0.14860E-03       265.811  
   265.940      0.94647E+03 -0.11566E+00 -0.34275E-02       265.861  
   265.990      0.93968E+03 -0.22293E-01 -0.11161E-02       265.911  
   266.040      0.93946E+03 -0.54655E-01 -0.23227E-02       265.961  
   266.090      0.93262E+03  0.79173E-01 -0.14375E-03       266.011  
   266.140      0.93284E+03 -0.38480E-01 -0.79904E-03       266.061  
   266.190      0.93032E+03 -0.57096E-01 -0.26201E-02       266.111  
   266.240      0.92751E+03 -0.86494E-01 -0.29698E-02       266.161  
   266.290      0.92333E+03  0.19777E-01 -0.10242E-02       266.211  
   266.340      0.92011E+03  0.76677E-01  0.33564E-03       266.261  
   266.390      0.92142E+03 -0.12747E-01 -0.17556E-02       266.311  
   266.440      0.91630E+03  0.98560E-01  0.74899E-03       266.361  
   266.490      0.91591E+03 -0.75758E-01 -0.18293E-02       266.411  
   266.540      0.90751E+03  0.18384E+00  0.47486E-02       266.461  
   266.591      0.90710E+03  0.11715E+00  0.14376E-02       266.511  
   266.640      0.90505E+03  0.84321E-01  0.75081E-03       266.561  
   266.690      0.90095E+03  0.12374E+00  0.28373E-02       266.611  
   266.741      0.89631E+03  0.85763E-01  0.74528E-03       266.661  
   266.790      0.88907E+03  0.16351E+00  0.21220E-02       266.711  
   266.840      0.88469E+03  0.15537E+00  0.20322E-02       266.761  
   266.890      0.88085E+03  0.17103E+00  0.21299E-02       266.811  
   266.940      0.87449E+03  0.22387E+00  0.21703E-02       266.861  
   266.991      0.87435E+03  0.72542E-01 -0.58398E-03       266.911  
   267.041      0.87203E+03  0.94444E-01 -0.62729E-03       266.961  
   267.090      0.86931E+03  0.11637E+00 -0.47501E-03       267.011  
   267.140      0.86854E+03  0.49884E-01 -0.10150E-02       267.061  
   267.190      0.87078E+03 -0.61734E-02 -0.22272E-02       267.111  
   267.240      0.86843E+03  0.88849E-01 -0.92121E-03       267.161  
   267.290      0.87576E+03 -0.27669E-01 -0.25287E-02       267.211  
   267.340      0.87524E+03  0.16790E-01 -0.11292E-02       267.261  
   267.390      0.88113E+03 -0.61269E-01 -0.21296E-02       267.311  
   267.440      0.88332E+03 -0.84478E-01 -0.96585E-03       267.361  
   267.491      0.88524E+03 -0.47226E-01 -0.10451E-03       267.411  
   267.541      0.88337E+03  0.23719E-01  0.94597E-03       267.461  
   267.591      0.88767E+03 -0.93797E-01 -0.11454E-02       267.511  
   267.640      0.88500E+03  0.17341E-01  0.11206E-02       267.561  
   267.690      0.88363E+03  0.21380E-01  0.20872E-02       267.611  
   267.740      0.88441E+03 -0.23939E-01 -0.38186E-03       267.661  
   267.791      0.87838E+03  0.51030E-01  0.18869E-02       267.711  
   267.841      0.87391E+03  0.10693E+00  0.33844E-02       267.761  
   267.890      0.87498E+03  0.22324E-01  0.49254E-03       267.811  
   267.941      0.87201E+03  0.10777E+00  0.13586E-02       267.861  
   267.991      0.86748E+03  0.80381E-01  0.76272E-03       267.911  
   268.040      0.86330E+03  0.33096E-01  0.33375E-03       267.960  
   268.089      0.86021E+03  0.11159E-01  0.22728E-03       268.010  
   268.140      0.85606E+03  0.11008E+00  0.17159E-02       268.060  
   268.190      0.85085E+03  0.13144E+00  0.67204E-03       268.110  
   268.240      0.84858E+03  0.87885E-01  0.19581E-04       268.160  
   268.290      0.84548E+03  0.20406E-01 -0.83983E-03       268.210  
   268.340      0.84488E+03  0.11560E-01 -0.21971E-02       268.260  
   268.389      0.83791E+03  0.95611E-01 -0.59093E-03       268.310  
   268.440      0.82930E+03  0.16467E+00  0.16158E-02       268.360  
   268.490      0.82640E+03  0.11919E+00  0.95065E-04       268.410  
   268.540      0.82602E+03  0.53421E-01 -0.15899E-02       268.460  
   268.590      0.82402E+03  0.72143E-01 -0.35489E-03       268.510  
   268.640      0.82288E+03  0.68385E-01 -0.10578E-02       268.560  
   268.690      0.81734E+03  0.81963E-01  0.69907E-03       268.610  
   268.740      0.81495E+03  0.94233E-01  0.78357E-03       268.660  
   268.790      0.81267E+03  0.79498E-01 -0.24921E-04       268.710  
   268.840      0.81060E+03  0.10038E+00  0.10595E-02       268.760  
   268.889      0.80837E+03  0.10840E+00  0.81175E-03       268.810  
   268.940      0.80408E+03  0.10584E+00  0.92180E-03       268.860  
   268.990      0.80303E+03  0.94533E-01 -0.26079E-03       268.910  
   269.040      0.79880E+03  0.11128E+00  0.35850E-03       268.960  
   269.090      0.79803E+03  0.90316E-01  0.18862E-03       269.010  
   269.140      0.79854E+03  0.22289E-01 -0.20998E-02       269.060  
   269.190      0.79305E+03  0.12688E+00  0.75211E-03       269.110  
   269.240      0.79272E+03  0.96334E-01  0.96562E-03       269.160  
   269.290      0.79863E+03 -0.30154E-01 -0.16785E-02       269.210  
   269.340      0.79927E+03 -0.43228E-01 -0.17735E-02       269.260  
   269.390      0.80088E+03 -0.27648E-01 -0.21122E-02       269.310  
   269.440      0.80190E+03  0.81097E-02 -0.12009E-02       269.360  
   269.490      0.80726E+03 -0.73357E-01 -0.20817E-02       269.410  
   269.540      0.80865E+03 -0.38297E-01 -0.11603E-02       269.460  
   269.590      0.81115E+03 -0.10019E+00 -0.20302E-02       269.510  
   269.640      0.81405E+03 -0.77321E-01 -0.17422E-02       269.560  
   269.690      0.81123E+03 -0.23295E-01  0.51692E-03       269.610  
   269.740      0.81075E+03 -0.51436E-01  0.85027E-03       269.660  
   269.790      0.80512E+03  0.12026E+00  0.40512E-02       269.710  
   269.840      0.80510E+03  0.29753E-01  0.20982E-02       269.760  
   269.890      0.80724E+03  0.65561E-01  0.62294E-03       269.810  
   269.940      0.79546E+03  0.17941E+00  0.37035E-02       269.860  
   269.990      0.79013E+03  0.20692E+00  0.48780E-02       269.910  
   270.040      0.79013E+03  0.13714E+00  0.23967E-02       269.960  
   270.090      0.78732E+03  0.59656E-01  0.10170E-02       270.010  
   270.140      0.78344E+03  0.11162E+00  0.13489E-02       270.060  
   270.190      0.78264E+03  0.58953E-01 -0.26297E-03       270.110  
   270.240      0.77846E+03  0.52597E-01 -0.79208E-03       270.160  
   270.290      0.76968E+03  0.12114E+00  0.11486E-02       270.210  
   270.340      0.76843E+03  0.13556E+00  0.13062E-02       270.260  
   270.390      0.76385E+03  0.19263E+00  0.34077E-02       270.310  
   270.440      0.75816E+03  0.28490E+00  0.30322E-02       270.360  
   270.490      0.75813E+03  0.11999E+00  0.15224E-02       270.410  
   270.540      0.75713E+03  0.58112E-01 -0.89567E-03       270.460  
   270.590      0.75594E+03  0.18547E-01 -0.21151E-02       270.510  
   270.640      0.74919E+03  0.14989E+00  0.45630E-03       270.560  
   270.690      0.74741E+03  0.12345E+00  0.21651E-03       270.610  
   270.740      0.74632E+03  0.50788E-01 -0.10241E-02       270.660  
   270.791      0.74508E+03  0.40103E-01 -0.16108E-02       270.710  
   270.840      0.73772E+03  0.15720E+00  0.12546E-02       270.760  
   270.890      0.73657E+03  0.96131E-01  0.16038E-02       270.810  
   270.940      0.73992E+03 -0.46558E-02 -0.10762E-02       270.860  
   270.990      0.73437E+03  0.91837E-01 -0.55740E-03       270.910  
   271.040      0.73051E+03  0.11265E+00  0.10707E-02       270.960  
   271.090      0.73071E+03  0.14415E+00  0.14999E-02       271.010  
   271.140      0.73115E+03  0.16706E+00  0.36017E-03       271.060  
   271.190      0.72927E+03  0.15920E+00  0.15739E-02       271.110  
   271.240      0.72600E+03  0.83183E-01  0.89212E-03       271.160  
   271.290      0.72705E+03  0.63654E-01 -0.25679E-03       271.210  
   271.340      0.72193E+03  0.14928E+00  0.21970E-02       271.260  
   271.390      0.72159E+03  0.63159E-01  0.96001E-03       271.310  
   271.440      0.71940E+03  0.61387E-01  0.26427E-03       271.360  
   271.491      0.71553E+03  0.17293E+00  0.29872E-02       271.410  
   271.541      0.72111E+03  0.56655E-01 -0.52499E-03       271.460  
   271.591      0.71827E+03  0.86871E-02 -0.11742E-03       271.510  
   271.640      0.71898E+03  0.55608E-01 -0.86993E-03       271.560  
   271.690      0.71845E+03  0.38467E-01 -0.57585E-03       271.610  
   271.741      0.71731E+03  0.61978E-01  0.60179E-03       271.660  
   271.791      0.71798E+03  0.11480E+00  0.87773E-03       271.710  
   271.840      0.71671E+03  0.58568E-01  0.80486E-03       271.760  
   271.891      0.71545E+03  0.28610E-01  0.84259E-03       271.810  
   271.941      0.71294E+03  0.70440E-01  0.12830E-02       271.860  
   271.990      0.70747E+03  0.18860E+00  0.40969E-02       271.910  
   272.041      0.70723E+03  0.59655E-01  0.74735E-03       271.960  
   272.090      0.70374E+03  0.19032E+00  0.35264E-02       272.010  
   272.141      0.70447E+03  0.83358E-01  0.14587E-02       272.060  
   272.190      0.69780E+03  0.13700E+00  0.21519E-02       272.110  
   272.241      0.69452E+03  0.87061E-01  0.13783E-02       272.160  
   272.290      0.69052E+03  0.15633E+00  0.14684E-02       272.210  
   272.341      0.68594E+03  0.20980E+00  0.29052E-02       272.260  
   272.391      0.68480E+03  0.26967E+00  0.32846E-02       272.310  
   272.441      0.68228E+03  0.20592E+00  0.30658E-02       272.360  
   272.491      0.68197E+03  0.18174E+00  0.24673E-02       272.410  
   272.540      0.67990E+03  0.22848E+00  0.24679E-02       272.460  
   272.591      0.68002E+03  0.12895E+00  0.83460E-03       272.510  
   272.641      0.68113E+03  0.86865E-01 -0.20592E-03       272.560  
   272.691      0.67717E+03  0.14610E+00  0.12084E-02       272.610  
   272.740      0.67264E+03  0.32619E-01 -0.73828E-03       272.660  
   272.791      0.66943E+03  0.20527E+00  0.16510E-02       272.710  
   272.841      0.66682E+03  0.15959E+00  0.15998E-02       272.760  
   272.891      0.66654E+03  0.14099E+00  0.70470E-03       272.810  
   272.941      0.66424E+03  0.15201E+00  0.12295E-02       272.860  
   272.991      0.66473E+03  0.68530E-01 -0.23452E-02       272.910  
   273.041      0.66521E+03  0.70467E-01 -0.94701E-03       272.960  
   273.090      0.66341E+03  0.12056E+00 -0.44249E-03       273.010  
   273.141      0.66165E+03  0.81394E-01  0.42665E-03       273.060  
   273.191      0.65998E+03  0.39171E-01 -0.61964E-03       273.110  
   273.241      0.66081E+03 -0.31244E-01 -0.20669E-02       273.160  
   273.291      0.65719E+03  0.33138E-01 -0.10819E-02       273.210  
   273.341      0.65360E+03  0.79219E-01  0.13813E-03       273.260  
   273.391      0.65214E+03  0.74091E-01 -0.74993E-03       273.310  
   273.441      0.64255E+03  0.21666E+00  0.31568E-02       273.360  
   273.491      0.63649E+03  0.20180E+00  0.40397E-02       273.410  
   273.541      0.63923E+03  0.14680E+00  0.12512E-03       273.460  
   273.591      0.63331E+03  0.28621E+00  0.37861E-02       273.510  
   273.641      0.63130E+03  0.24632E+00  0.32682E-02       273.560  
   273.691      0.62946E+03  0.23839E+00  0.23612E-02       273.610  
   273.741      0.62739E+03  0.72118E-01 -0.20233E-03       273.660  
   273.791      0.62236E+03  0.17505E+00  0.10310E-02       273.710  
   273.841      0.62196E+03  0.20468E+00  0.11312E-02       273.760  
   273.891      0.61924E+03  0.15764E+00  0.88131E-03       273.810  
   273.941      0.61442E+03  0.18014E+00  0.62970E-03       273.860  
   273.991      0.60940E+03  0.15457E+00  0.10849E-02       273.910  
   274.041      0.60718E+03  0.16188E+00  0.53485E-03       273.960  
   274.091      0.60387E+03  0.16180E+00  0.13854E-02       274.010  
   274.141      0.60393E+03  0.77240E-01 -0.17497E-02       274.060  
   274.191      0.59973E+03  0.12518E+00 -0.52162E-03       274.110  
   274.241      0.59393E+03  0.17012E+00  0.15545E-03       274.160  
   274.291      0.59208E+03  0.16778E+00  0.75999E-03       274.210  
   274.341      0.59422E+03  0.66438E-01 -0.26317E-02       274.260  
   274.391      0.58864E+03  0.17072E+00  0.72366E-03       274.310  
   274.441      0.59219E+03  0.37701E-01 -0.19757E-02       274.360  
   274.492      0.58931E+03  0.11606E+00 -0.42518E-04       274.410  
   274.541      0.58770E+03  0.16189E+00  0.63119E-03       274.460  
   274.591      0.59236E+03  0.51306E-01 -0.17403E-02       274.510  
   274.642      0.58946E+03  0.98142E-01  0.15371E-04       274.560  
   274.691      0.59144E+03  0.89444E-01  0.36064E-03       274.610  
   274.741      0.59104E+03  0.80014E-01  0.34397E-03       274.660  
   274.791      0.59082E+03  0.12989E+00  0.12733E-02       274.710  
   274.842      0.59141E+03  0.39083E-01 -0.12807E-02       274.760  
   274.891      0.59195E+03  0.36327E-01 -0.14006E-02       274.810  
   274.941      0.58892E+03  0.13668E+00  0.13157E-02       274.860  
   274.991      0.58521E+03  0.10480E+00  0.37149E-03       274.910  
   275.041      0.58472E+03  0.81184E-01 -0.17841E-03       274.960  
   275.091      0.58227E+03  0.11427E+00  0.99468E-03       275.010  
   275.141      0.57959E+03  0.10292E+00  0.78916E-03       275.060  
   275.191      0.57757E+03  0.48481E-01 -0.74479E-03       275.110  
   275.241      0.57490E+03  0.87655E-01 -0.18357E-03       275.160  
   275.291      0.56969E+03  0.11533E+00  0.41914E-03       275.210  
   275.341      0.56778E+03  0.14975E+00  0.13033E-02       275.260  
   275.391      0.56590E+03  0.15200E+00  0.60946E-03       275.310  
   275.441      0.56133E+03  0.13544E+00  0.65770E-03       275.360  
   275.491      0.55871E+03  0.18523E+00  0.90770E-03       275.410  
   275.541      0.55647E+03  0.16096E+00  0.15772E-03       275.460  
   275.591      0.55583E+03  0.12677E+00  0.27576E-03       275.510  
   275.642      0.55137E+03  0.14292E+00  0.55370E-03       275.560  
   275.692      0.54770E+03  0.16478E+00  0.17702E-02       275.610  
   275.741      0.54722E+03  0.97725E-01 -0.70181E-03       275.660  
   275.791      0.54447E+03  0.10967E+00 -0.89934E-03       275.710  
   275.842      0.54149E+03  0.13989E+00  0.11517E-04       275.760  
   275.892      0.54266E+03  0.53128E-01 -0.22020E-02       275.810  
   275.941      0.54033E+03  0.15275E+00 -0.46056E-03       275.860  
   275.991      0.53680E+03  0.11170E+00  0.10206E-03       275.910  
   276.042      0.53603E+03  0.13103E+00  0.76237E-04       275.960  
   276.091      0.53617E+03  0.11061E+00  0.40220E-03       276.010  
   276.142      0.53693E+03  0.82942E-01 -0.71532E-03       276.060  
   276.191      0.53723E+03  0.33579E-01 -0.12233E-02       276.110  
   276.242      0.53578E+03  0.28368E-01 -0.14739E-02       276.160  
   276.292      0.53391E+03  0.73825E-01 -0.11811E-02       276.210  
   276.342      0.52993E+03  0.14535E+00  0.55908E-03       276.260  
   276.392      0.52788E+03  0.13579E+00  0.56314E-03       276.310  
   276.442      0.52635E+03  0.11793E+00  0.29015E-03       276.360  
   276.491      0.52428E+03  0.51650E-01 -0.53943E-03       276.410  
   276.542      0.51673E+03  0.16183E+00  0.14358E-02       276.460  
   276.592      0.51531E+03  0.14289E+00  0.91664E-03       276.510  
   276.642      0.51384E+03  0.15379E+00  0.90602E-03       276.560  
   276.692      0.51265E+03  0.12756E+00 -0.12107E-03       276.610  
   276.742      0.51136E+03  0.10171E+00  0.18424E-03       276.660  
   276.792      0.50924E+03  0.11817E+00  0.42652E-03       276.710  
   276.842      0.50920E+03  0.72339E-01 -0.20265E-03       276.760  
   276.892      0.50560E+03  0.11468E+00  0.10907E-02       276.810  
   276.942      0.50401E+03  0.11332E+00  0.43717E-03       276.860  
   276.991      0.50250E+03  0.13230E+00  0.95441E-04       276.910  
   277.042      0.50081E+03  0.10937E+00  0.31294E-03       276.960  
   277.092      0.50148E+03  0.91016E-01 -0.39654E-03       277.010  
   277.142      0.50021E+03  0.83065E-01  0.73186E-04       277.060  
   277.192      0.49963E+03  0.86852E-01 -0.61260E-03       277.110  
   277.242      0.49749E+03  0.95696E-01  0.24536E-03       277.160  
   277.292      0.49900E+03  0.62894E-01 -0.83432E-03       277.210  
   277.342      0.49597E+03  0.10209E+00  0.72636E-03       277.260  
   277.392      0.49540E+03  0.92737E-01 -0.21873E-03       277.310  
   277.442      0.49381E+03  0.13360E+00  0.51581E-03       277.360  
   277.492      0.49063E+03  0.10059E+00  0.50534E-03       277.410  
   277.542      0.48900E+03  0.12857E+00  0.41512E-04       277.460  
   277.592      0.48634E+03  0.13662E+00  0.58439E-03       277.510  
   277.642      0.48330E+03  0.16619E+00  0.16254E-02       277.560  
   277.692      0.48014E+03  0.16962E+00  0.14420E-02       277.610  
   277.742      0.47522E+03  0.18468E+00  0.17854E-02       277.660  
   277.792      0.47280E+03  0.16149E+00  0.13687E-02       277.710  
   277.842      0.47120E+03  0.16811E+00  0.13121E-02       277.760  
   277.892      0.46949E+03  0.15197E+00  0.63104E-03       277.810  
   277.942      0.46602E+03  0.16311E+00  0.15258E-02       277.860  
   277.992      0.46350E+03  0.16974E+00  0.15982E-03       277.910  
   278.042      0.46251E+03  0.12941E+00 -0.18926E-03       277.960  
   278.092      0.45952E+03  0.16736E+00  0.14189E-02       278.010  
   278.142      0.46180E+03  0.72278E-01 -0.17686E-02       278.060  
   278.192      0.45760E+03  0.12159E+00  0.15306E-04       278.110  
   278.242      0.45629E+03  0.12666E+00 -0.57199E-03       278.160  
   278.292      0.45525E+03  0.82792E-01 -0.11526E-02       278.210  
   278.342      0.45274E+03  0.15562E+00  0.57798E-03       278.260  
   278.392      0.45157E+03  0.11304E+00  0.15619E-03       278.310  
   278.442      0.45005E+03  0.10047E+00  0.24188E-03       278.360  
   278.492      0.44815E+03  0.10158E+00  0.62462E-04       278.410  
   278.542      0.44841E+03  0.85182E-01 -0.59654E-03       278.460  
   278.592      0.44536E+03  0.12217E+00  0.45946E-03       278.510  
   278.642      0.44407E+03  0.13588E+00  0.20177E-03       278.560  
   278.692      0.44018E+03  0.18887E+00  0.15394E-02       278.610  
   278.743      0.44074E+03  0.10949E+00 -0.21055E-03       278.660  
   278.792      0.44029E+03  0.11664E+00 -0.87496E-03       278.710  
   278.842      0.43844E+03  0.54874E-01 -0.93505E-03       278.760  
   278.893      0.43244E+03  0.16907E+00  0.16537E-02       278.810  
   278.942      0.42985E+03  0.15247E+00  0.16991E-02       278.860  
   278.992      0.42670E+03  0.19215E+00  0.16802E-02       278.910  
   279.042      0.42473E+03  0.15715E+00  0.11344E-02       278.960  
   279.093      0.42631E+03  0.75086E-01 -0.95191E-03       279.010  
   279.142      0.42175E+03  0.13639E+00  0.37807E-03       279.060  
   279.192      0.41746E+03  0.19087E+00  0.19131E-02       279.110  
   279.242      0.41641E+03  0.17409E+00  0.13103E-02       279.160  
   279.292      0.41438E+03  0.18516E+00  0.15039E-02       279.210  
   279.342      0.41255E+03  0.17530E+00  0.16472E-02       279.260  
   279.392      0.41314E+03  0.14821E+00  0.71107E-03       279.310  
   279.442      0.41244E+03  0.14486E+00  0.97060E-03       279.360  
   279.492      0.41371E+03  0.68737E-01 -0.83850E-03       279.410  
   279.543      0.41046E+03  0.15169E+00  0.81590E-03       279.460  
   279.592      0.41300E+03  0.66575E-01 -0.10779E-02       279.510  
   279.642      0.41178E+03  0.78040E-01 -0.87321E-03       279.560  
   279.692      0.40964E+03  0.88841E-01 -0.55606E-03       279.610  
   279.742      0.40746E+03  0.12470E+00  0.80543E-03       279.660  
   279.792      0.40844E+03  0.10036E+00 -0.46188E-03       279.710  
   279.842      0.40601E+03  0.11829E+00  0.68740E-03       279.760  
   279.893      0.40665E+03  0.10168E+00 -0.76561E-03       279.810  
   279.943      0.40217E+03  0.17249E+00  0.11910E-02       279.860  
   279.993      0.40212E+03  0.12721E+00 -0.27157E-03       279.910  
   280.042      0.39626E+03  0.14910E+00  0.11785E-02       279.960  
   280.092      0.39884E+03  0.11758E-01 -0.35348E-02       280.010  
   280.143      0.39298E+03  0.69424E-01 -0.19679E-02       280.060  
   280.193      0.39174E+03  0.52800E-01 -0.31225E-02       280.110  
   280.242      0.38817E+03  0.66255E-01 -0.29760E-02       280.160  
   280.293      0.38325E+03  0.10205E+00 -0.20431E-02       280.210  
   280.343      0.38154E+03  0.87429E-01 -0.21789E-02       280.260  
   280.392      0.37977E+03  0.87979E-01 -0.22642E-02       280.310  
   280.443      0.37693E+03  0.10404E+00 -0.18284E-02       280.360  
   280.492      0.37421E+03  0.84229E-01 -0.19749E-02       280.410  
   280.543      0.37278E+03  0.95780E-01 -0.20261E-02       280.460  
   280.592      0.37009E+03  0.14048E+00 -0.85497E-03       280.510  
   280.643      0.37149E+03  0.85764E-01 -0.23461E-02       280.560  
   280.692      0.36949E+03  0.83473E-01 -0.23171E-02       280.610  
   280.743      0.36731E+03  0.90674E-01 -0.17063E-02       280.660  
   280.792      0.36702E+03  0.76866E-01 -0.17824E-02       280.710  
   280.843      0.36600E+03  0.76199E-01 -0.16319E-02       280.760  
   280.893      0.36593E+03  0.90611E-01 -0.15905E-02       280.810  
   280.943      0.36572E+03  0.43490E-01 -0.21552E-02       280.860  
   280.993      0.36506E+03  0.46289E-01 -0.21890E-02       280.910  
   281.043      0.36461E+03  0.86008E-02 -0.29618E-02       280.960  
   281.093      0.36241E+03  0.44958E-01 -0.18876E-02       281.010  
   281.143      0.36062E+03  0.67086E-01 -0.18447E-02       281.060  
   281.193      0.35857E+03  0.74231E-01 -0.18247E-02       281.110  
   281.243      0.35541E+03  0.64503E-01 -0.20537E-02       281.160  
   281.293      0.35321E+03  0.76285E-01 -0.19698E-02       281.210  
   281.343      0.35033E+03  0.83130E-01 -0.18298E-02       281.260  
   281.393      0.34766E+03  0.87638E-01 -0.18873E-02       281.310  
   281.443      0.34442E+03  0.84588E-01 -0.21592E-02       281.360  
   281.493      0.33929E+03  0.11552E+00 -0.16745E-02       281.410  
   281.543      0.33613E+03  0.13641E+00 -0.94650E-03       281.460  
   281.593      0.33521E+03  0.12155E+00 -0.16012E-02       281.510  
   281.643      0.33306E+03  0.11092E+00 -0.16019E-02       281.560  
   281.693      0.33034E+03  0.14512E+00 -0.10697E-02       281.610  
   281.743      0.32906E+03  0.94444E-01 -0.18136E-02       281.660  
   281.793      0.32732E+03  0.11009E+00 -0.17322E-02       281.710  
   281.843      0.32580E+03  0.10816E+00 -0.15853E-02       281.760  
   281.893      0.32331E+03  0.13716E+00 -0.74355E-03       281.810  
   281.943      0.32235E+03  0.10989E+00 -0.10929E-02       281.860  
   281.993      0.32093E+03  0.12110E+00 -0.76234E-03       281.910  
   282.043      0.32021E+03  0.11555E+00 -0.69949E-03       281.960  
   282.093      0.32000E+03  0.10632E+00 -0.87578E-03       282.010  
   282.143      0.31945E+03  0.11335E+00 -0.60602E-03       282.060  
   282.193      0.31900E+03  0.10984E+00 -0.51881E-03       282.110  
   282.243      0.31869E+03  0.10276E+00 -0.70155E-03       282.160  
   282.293      0.31824E+03  0.97302E-01 -0.81159E-03       282.210  
   282.343      0.31740E+03  0.91519E-01 -0.88200E-03       282.260  
   282.393      0.31628E+03  0.87474E-01 -0.92596E-03       282.310  
   282.443      0.31331E+03  0.11204E+00 -0.37576E-03       282.360  
   282.493      0.31310E+03  0.68346E-01 -0.14860E-02       282.410  
   282.543      0.31069E+03  0.84969E-01 -0.12461E-02       282.460  
   282.593      0.30849E+03  0.89411E-01 -0.10723E-02       282.510  
   282.643      0.30682E+03  0.93858E-01 -0.10770E-02       282.560  
   282.694      0.30504E+03  0.11188E+00 -0.11876E-02       282.610  
   282.743      0.30353E+03  0.95770E-01 -0.11154E-02       282.660  
   282.793      0.30093E+03  0.10978E+00 -0.72190E-03       282.710  
   282.843      0.30085E+03  0.10722E+00 -0.10184E-02       282.760  
   282.893      0.29985E+03  0.10479E+00 -0.10061E-02       282.810  
   282.943      0.29853E+03  0.10937E+00 -0.72517E-03       282.860  
   282.993      0.29775E+03  0.96073E-01 -0.73726E-03       282.910  
   283.043      0.29708E+03  0.10295E+00 -0.29333E-03       282.960  
   283.094      0.29655E+03  0.11124E+00 -0.27039E-03       283.010  
   283.143      0.29663E+03  0.95798E-01 -0.34147E-03       283.060  
   283.193      0.29691E+03  0.86077E-01 -0.32131E-03       283.110  
   283.242      0.29733E+03  0.99194E-01 -0.22906E-03       283.159  
   283.293      0.29735E+03  0.10037E+00  0.15692E-03       283.209  
   283.342      0.29787E+03  0.67581E-01 -0.34201E-03       283.259  
   283.392      0.29837E+03  0.78886E-01 -0.31243E-03       283.309  
   283.443      0.29721E+03  0.70563E-01 -0.24406E-03       283.359  
   283.493      0.29593E+03  0.73587E-01 -0.79568E-03       283.409  
   283.542      0.29360E+03  0.64014E-01 -0.89097E-03       283.459  
   283.592      0.29120E+03  0.11021E+00  0.11721E-04       283.509  
   283.642      0.28909E+03  0.10869E+00 -0.16360E-03       283.559  
   283.693      0.28686E+03  0.93685E-01 -0.90636E-03       283.609  
   283.743      0.28289E+03  0.12955E+00 -0.25539E-03       283.659  
   283.793      0.28060E+03  0.12008E+00 -0.59853E-03       283.709  
   283.843      0.27817E+03  0.14316E+00 -0.72297E-04       283.759  
   283.892      0.27689E+03  0.11084E+00 -0.10601E-02       283.809  
   283.943      0.27207E+03  0.14534E+00 -0.16344E-03       283.859  
   283.992      0.27094E+03  0.11933E+00 -0.10781E-02       283.909  
   284.042      0.26772E+03  0.14078E+00 -0.52712E-03       283.959  
   284.093      0.26707E+03  0.11380E+00 -0.11288E-02       284.009  
   284.143      0.26525E+03  0.12302E+00 -0.10198E-02       284.059  
   284.193      0.26313E+03  0.14365E+00 -0.56083E-03       284.109  
   284.243      0.26054E+03  0.15530E+00  0.82302E-04       284.159  
   284.293      0.26113E+03  0.12555E+00 -0.77689E-03       284.209  
   284.343      0.25994E+03  0.13175E+00 -0.34385E-03       284.259  
   284.392      0.25943E+03  0.13399E+00 -0.22896E-03       284.309  
   284.442      0.25841E+03  0.12052E+00 -0.39134E-03       284.359  
   284.493      0.25661E+03  0.11962E+00 -0.26444E-03       284.409  
   284.543      0.25567E+03  0.12160E+00 -0.23461E-03       284.459  
   284.593      0.25516E+03  0.12191E+00 -0.47800E-03       284.509  
   284.642      0.25300E+03  0.13222E+00 -0.23021E-04       284.559  
   284.693      0.25130E+03  0.13564E+00  0.29430E-04       284.609  
   284.743      0.25119E+03  0.12448E+00 -0.14966E-03       284.659  
   284.792      0.25032E+03  0.12119E+00 -0.16018E-03       284.709  
   284.843      0.24932E+03  0.13560E+00  0.75393E-04       284.759  
   284.893      0.24724E+03  0.12563E+00  0.34920E-04       284.809  
   284.943      0.24738E+03  0.89408E-01 -0.78064E-03       284.859  
   284.993      0.24445E+03  0.10236E+00 -0.35871E-03       284.909  
   285.042      0.24373E+03  0.12074E+00 -0.23310E-03       284.959  
   285.093      0.23894E+03  0.18758E+00  0.12822E-02       285.009  
   285.142      0.23679E+03  0.18801E+00  0.13989E-02       285.059  
   285.193      0.23344E+03  0.21646E+00  0.21178E-02       285.109  
   285.242      0.23209E+03  0.20532E+00  0.16772E-02       285.159  
   285.293      0.23026E+03  0.17644E+00  0.12762E-02       285.209  
   285.342      0.22972E+03  0.14868E+00  0.63297E-03       285.259  
   285.393      0.22752E+03  0.16282E+00  0.10747E-02       285.309  
   285.443      0.22646E+03  0.16169E+00  0.84651E-03       285.359  
   285.493      0.22551E+03  0.16764E+00  0.97127E-03       285.409  
   285.543      0.22346E+03  0.19114E+00  0.14830E-02       285.459  
   285.593      0.22398E+03  0.14625E+00  0.74797E-03       285.509  
   285.643      0.22383E+03  0.13638E+00  0.56230E-03       285.559  
   285.693      0.22361E+03  0.13096E+00  0.49680E-03       285.609  
   285.743      0.22285E+03  0.12072E+00  0.62558E-03       285.659  
   285.793      0.22273E+03  0.12506E+00  0.68213E-03       285.709  
   285.843      0.22282E+03  0.11869E+00  0.46443E-03       285.759  
   285.893      0.22096E+03  0.13298E+00  0.99795E-03       285.809  
   285.943      0.22074E+03  0.14092E+00  0.84542E-03       285.859  
   285.993      0.21954E+03  0.11572E+00  0.57993E-03       285.909  
   286.043      0.21707E+03  0.14997E+00  0.15331E-02       285.959  
   286.093      0.21789E+03  0.11857E+00  0.64036E-03       286.009  
   286.143      0.21694E+03  0.13024E+00  0.69923E-03       286.059  
   286.193      0.21559E+03  0.11757E+00  0.63127E-03       286.109  
   286.243      0.21424E+03  0.11313E+00  0.33913E-03       286.159  
   286.293      0.21323E+03  0.12856E+00  0.49933E-03       286.209  
   286.343      0.21226E+03  0.12885E+00  0.59177E-03       286.259  
   286.393      0.21104E+03  0.11494E+00  0.47560E-03       286.309  
   286.444      0.20963E+03  0.13159E+00  0.59587E-03       286.359  
   286.493      0.20828E+03  0.11721E+00  0.37320E-03       286.409  
   286.543      0.20672E+03  0.12329E+00  0.48307E-03       286.459  
   286.593      0.20586E+03  0.13951E+00  0.68151E-03       286.509  
   286.643      0.20519E+03  0.12411E+00  0.25876E-03       286.559  
   286.693      0.20396E+03  0.12327E+00  0.15388E-03       286.609  
   286.743      0.20227E+03  0.13387E+00  0.46833E-03       286.659  
   286.793      0.20160E+03  0.98910E-01 -0.14347E-03       286.709  
   286.843      0.20056E+03  0.11780E+00  0.31234E-03       286.759  
   286.893      0.19988E+03  0.11894E+00  0.33432E-03       286.809  
   286.943      0.19823E+03  0.14267E+00  0.74364E-03       286.859  
   286.993      0.19799E+03  0.11540E+00  0.31893E-03       286.909  
   287.043      0.19746E+03  0.13173E+00  0.74389E-03       286.959  
   287.093      0.19702E+03  0.11456E+00  0.54478E-03       287.009  
   287.143      0.19689E+03  0.10390E+00  0.67872E-04       287.059  
   287.193      0.19579E+03  0.10985E+00  0.35627E-03       287.109  
   287.243      0.19403E+03  0.11110E+00  0.56255E-03       287.159  
   287.294      0.19371E+03  0.10626E+00  0.39412E-03       287.209  
   287.343      0.19299E+03  0.99053E-01  0.17114E-03       287.259  
   287.393      0.19168E+03  0.11384E+00  0.39558E-03       287.309  
   287.443      0.18935E+03  0.12586E+00  0.71336E-03       287.359  
   287.493      0.18790E+03  0.12275E+00  0.43602E-03       287.409  
   287.543      0.18594E+03  0.12651E+00  0.48591E-03       287.459  
   287.594      0.18592E+03  0.11269E+00  0.40129E-04       287.509  
   287.643      0.18393E+03  0.10796E+00 -0.83312E-04       287.559  
   287.694      0.18138E+03  0.13083E+00  0.34109E-03       287.609  
   287.743      0.17927E+03  0.13062E+00  0.29809E-03       287.659  
   287.794      0.17933E+03  0.97249E-01 -0.47734E-03       287.709  
   287.844      0.17628E+03  0.14386E+00  0.59165E-03       287.759  
   287.893      0.17525E+03  0.14306E+00  0.46543E-03       287.809  
   287.944      0.17354E+03  0.14632E+00  0.54846E-03       287.859  
   287.994      0.17202E+03  0.14974E+00  0.58952E-03       287.909  
   288.043      0.17072E+03  0.15715E+00  0.87438E-03       287.959  
   288.093      0.17196E+03  0.10472E+00 -0.45212E-03       288.009  
   288.144      0.16996E+03  0.12660E+00  0.66497E-04       288.059  
   288.194      0.16897E+03  0.12351E+00  0.12091E-03       288.109  
   288.243      0.16715E+03  0.14100E+00  0.48946E-03       288.159  
   288.293      0.16622E+03  0.13822E+00  0.48944E-03       288.209  
   288.343      0.16568E+03  0.13711E+00  0.46457E-03       288.259  
   288.394      0.16579E+03  0.11302E+00 -0.14807E-04       288.309  
   288.444      0.16395E+03  0.13467E+00  0.62512E-03       288.359  
   288.494      0.16368E+03  0.12226E+00  0.35750E-03       288.409  
   288.544      0.16276E+03  0.13334E+00  0.66880E-03       288.459  
   288.594      0.16314E+03  0.12070E+00  0.73508E-04       288.509  
   288.644      0.16239E+03  0.98918E-01 -0.16316E-03       288.559  
   288.694      0.16091E+03  0.12636E+00  0.45417E-03       288.609  
   288.744      0.15993E+03  0.12642E+00  0.36457E-03       288.659  
   288.794      0.15936E+03  0.12560E+00  0.35189E-03       288.709  
   288.844      0.15929E+03  0.10771E+00 -0.68240E-04       288.759  
   288.894      0.15737E+03  0.11178E+00  0.28528E-03       288.809  
   288.944      0.15646E+03  0.12001E+00  0.30575E-03       288.859  
   288.994      0.15499E+03  0.12946E+00  0.56654E-03       288.909  
   289.044      0.15481E+03  0.10722E+00 -0.66120E-05       288.959  
   289.093      0.15421E+03  0.13344E+00  0.46588E-03       289.009  
   289.144      0.15282E+03  0.12045E+00  0.55866E-03       289.059  
   289.194      0.15215E+03  0.10775E+00  0.19109E-03       289.109  
   289.244      0.15106E+03  0.10261E+00  0.17073E-03       289.159  
   289.294      0.15055E+03  0.10040E+00  0.46376E-04       289.209  
   289.343      0.14967E+03  0.10216E+00  0.27881E-03       289.259  
   289.394      0.14879E+03  0.11199E+00  0.30044E-03       289.309  
   289.444      0.14876E+03  0.68681E-01 -0.70446E-03       289.359  
   289.494      0.14618E+03  0.11863E+00  0.56033E-03       289.409  
   289.544      0.14582E+03  0.10866E+00  0.17271E-03       289.459  
   289.594      0.14490E+03  0.10397E+00  0.58406E-04       289.509  
   289.644      0.14350E+03  0.12114E+00  0.41817E-03       289.559  
   289.694      0.14204E+03  0.12630E+00  0.63793E-03       289.609  
   289.744      0.14180E+03  0.10769E+00  0.19370E-03       289.659  
   289.794      0.14082E+03  0.10623E+00  0.15368E-03       289.709  
   289.844      0.14110E+03  0.92174E-01 -0.16849E-03       289.759  
   289.894      0.13978E+03  0.10917E+00  0.24482E-03       289.809  
   289.944      0.13964E+03  0.96251E-01 -0.18182E-04       289.859  
   289.994      0.13854E+03  0.11571E+00  0.45894E-03       289.909  
   290.044      0.13828E+03  0.10453E+00  0.19685E-03       289.959  
   290.094      0.13780E+03  0.10405E+00  0.28168E-03       290.009  
   290.144      0.13664E+03  0.10280E+00  0.30874E-03       290.059  
   290.194      0.13602E+03  0.86542E-01  0.70276E-04       290.109  
   290.244      0.13478E+03  0.12265E+00  0.55872E-03       290.159  
   290.294      0.13434E+03  0.10841E+00  0.38088E-03       290.209  
   290.344      0.13418E+03  0.93322E-01  0.86515E-04       290.259  
   290.394      0.13322E+03  0.97764E-01  0.30695E-03       290.309  
   290.444      0.13281E+03  0.98397E-01  0.22168E-03       290.359  
   290.494      0.13227E+03  0.10141E+00  0.22932E-03       290.409  
   290.544      0.13183E+03  0.96115E-01  0.59618E-04       290.459  
   290.594      0.13153E+03  0.86826E-01 -0.64962E-04       290.509  
   290.644      0.13078E+03  0.96358E-01  0.17902E-03       290.559  
   290.694      0.13026E+03  0.91061E-01 -0.67056E-04       290.609  
   290.744      0.12897E+03  0.93674E-01  0.18991E-03       290.659  
   290.794      0.12859E+03  0.88240E-01 -0.92678E-04       290.709  
   290.844      0.12790E+03  0.87636E-01  0.63931E-04       290.759  
   290.894      0.12711E+03  0.91731E-01  0.61578E-04       290.809  
   290.944      0.12635E+03  0.95935E-01  0.20197E-03       290.859  
   290.995      0.12545E+03  0.83531E-01 -0.69468E-04       290.909  
   291.045      0.12469E+03  0.93079E-01  0.63588E-04       290.959  
   291.095      0.12381E+03  0.90477E-01  0.91687E-05       291.009  
   291.145      0.12279E+03  0.95956E-01  0.24159E-03       291.059  
   291.195      0.12198E+03  0.87139E-01 -0.63598E-04       291.109  
   291.245      0.12120E+03  0.99828E-01  0.39033E-04       291.159  
   291.295      0.11982E+03  0.94084E-01  0.14038E-03       291.209  
   291.343      0.11951E+03  0.92989E-01  0.67616E-04       291.258  
   291.393      0.11829E+03  0.10362E+00  0.31225E-03       291.308  
   291.443      0.11740E+03  0.10197E+00  0.17672E-03       291.358  
   291.493      0.11599E+03  0.98947E-01  0.20659E-03       291.408  
   291.543      0.11533E+03  0.10013E+00  0.10129E-03       291.458  
   291.594      0.11432E+03  0.95772E-01  0.92064E-04       291.508  
   291.643      0.11315E+03  0.10198E+00  0.30980E-03       291.558  
   291.693      0.11213E+03  0.10165E+00  0.13560E-03       291.608  
   291.743      0.11087E+03  0.10927E+00  0.28698E-03       291.658  
   291.794      0.11012E+03  0.11022E+00  0.30340E-03       291.708  
   291.844      0.10981E+03  0.10583E+00  0.25353E-03       291.758  
   291.893      0.10932E+03  0.10176E+00  0.18421E-03       291.808  
   291.944      0.10856E+03  0.10850E+00  0.30452E-03       291.858  
   291.994      0.10762E+03  0.10296E+00  0.25359E-03       291.908  
   292.043      0.10722E+03  0.96619E-01  0.69823E-04       291.958  
   292.094      0.10670E+03  0.10664E+00  0.34471E-03       292.008  
   292.143      0.10625E+03  0.10731E+00  0.32002E-03       292.058  
   292.193      0.10536E+03  0.10146E+00  0.22415E-03       292.108  
   292.244      0.10459E+03  0.10104E+00  0.19706E-03       292.158  
   292.293      0.10373E+03  0.10454E+00  0.41436E-03       292.208  
   292.344      0.10383E+03  0.94375E-01  0.50135E-05       292.258  
   292.393      0.10314E+03  0.97531E-01  0.28407E-03       292.308  
   292.444      0.10290E+03  0.10281E+00  0.30856E-03       292.358  
   292.493      0.10269E+03  0.91176E-01  0.14364E-03       292.408  
   292.544      0.10201E+03  0.10115E+00  0.42842E-03       292.458  
   292.594      0.10205E+03  0.93595E-01  0.25529E-03       292.508  
   292.643      0.10160E+03  0.88561E-01  0.24158E-03       292.558  
   292.694      0.10127E+03  0.93244E-01  0.33615E-03       292.608  
   292.743      0.10063E+03  0.90146E-01  0.33701E-03       292.658  
   292.794      0.10028E+03  0.90069E-01  0.24441E-03       292.708  
   292.844      0.99730E+02  0.86938E-01  0.30985E-03       292.758  
   292.894      0.99180E+02  0.86231E-01  0.24683E-03       292.808  
   292.943      0.98370E+02  0.87619E-01  0.22192E-03       292.858  
   292.994      0.97590E+02  0.84262E-01  0.83754E-04       292.908  
   293.044      0.96810E+02  0.87804E-01  0.18193E-03       292.958  
   293.094      0.96450E+02  0.81702E-01 -0.94249E-04       293.008  
   293.143      0.95380E+02  0.89256E-01  0.32376E-03       293.058  
   293.194      0.94760E+02  0.89811E-01  0.22409E-03       293.108  
   293.244      0.94000E+02  0.99457E-01  0.26562E-03       293.158  
   293.294      0.93180E+02  0.83297E-01  0.10939E-04       293.208  
   293.344      0.92640E+02  0.91072E-01  0.17078E-03       293.258  
   293.394      0.92000E+02  0.88542E-01  0.11054E-03       293.308  
   293.444      0.90910E+02  0.89130E-01  0.24384E-03       293.358  
   293.494      0.90120E+02  0.92656E-01  0.21446E-03       293.408  
   293.544      0.89130E+02  0.91083E-01  0.22456E-03       293.458  
   293.594      0.89000E+02  0.85711E-01 -0.76717E-04       293.508  
   293.644      0.88230E+02  0.96943E-01  0.15488E-03       293.558  
   293.694      0.87290E+02  0.95711E-01  0.23928E-03       293.608  
   293.744      0.86160E+02  0.93548E-01  0.35762E-03       293.658  
   293.794      0.85700E+02  0.87496E-01  0.14810E-03       293.708  
   293.844      0.85300E+02  0.90896E-01  0.18156E-03       293.758  
   293.894      0.84840E+02  0.96513E-01  0.35341E-03       293.808  
   293.944      0.84350E+02  0.92059E-01  0.25284E-03       293.858  
   293.994      0.83790E+02  0.91341E-01  0.31626E-03       293.908  
   294.044      0.83540E+02  0.90616E-01  0.37936E-03       293.958  
   294.094      0.83570E+02  0.86578E-01  0.21324E-03       294.008  
   294.144      0.83270E+02  0.91519E-01  0.32623E-03       294.058  
   294.194      0.82750E+02  0.87307E-01  0.34837E-03       294.108  
   294.244      0.82370E+02  0.81841E-01  0.29435E-03       294.158  
   294.294      0.81800E+02  0.97048E-01  0.53990E-03       294.208  
   294.344      0.81720E+02  0.93662E-01  0.35730E-03       294.258  
   294.394      0.80930E+02  0.82410E-01  0.22631E-03       294.308  
   294.444      0.80520E+02  0.86224E-01  0.26992E-03       294.358  
   294.494      0.80160E+02  0.87169E-01  0.29720E-03       294.408  
   294.544      0.79640E+02  0.91576E-01  0.52745E-03       294.458  
   294.594      0.79470E+02  0.84716E-01  0.28597E-03       294.508  
   294.645      0.79070E+02  0.83631E-01  0.25679E-03       294.558  
   294.694      0.78390E+02  0.81950E-01  0.18100E-03       294.608  
   294.744      0.77980E+02  0.83030E-01  0.18383E-03       294.658  
   294.794      0.77230E+02  0.91252E-01  0.45228E-03       294.708  
   294.844      0.76930E+02  0.90285E-01  0.42339E-03       294.758  
   294.894      0.76270E+02  0.86156E-01  0.43657E-03       294.808  
   294.944      0.76040E+02  0.93110E-01  0.40689E-03       294.858  
   294.994      0.75280E+02  0.84380E-01  0.26217E-03       294.908  
   295.044      0.74870E+02  0.89718E-01  0.40745E-03       294.958  
   295.094      0.74120E+02  0.95688E-01  0.55591E-03       295.008  
   295.145      0.73570E+02  0.85453E-01  0.36657E-03       295.058  
   295.194      0.72940E+02  0.92922E-01  0.46213E-03       295.108  
   295.244      0.72260E+02  0.93079E-01  0.35899E-03       295.158  
   295.294      0.71320E+02  0.98283E-01  0.59467E-03       295.208  
   295.344      0.70840E+02  0.89522E-01  0.51222E-03       295.258  
   295.394      0.70410E+02  0.84150E-01  0.25717E-03       295.308  
   295.445      0.69910E+02  0.82379E-01  0.11108E-03       295.358  
   295.494      0.69080E+02  0.96379E-01  0.39968E-03       295.408  
   295.544      0.68470E+02  0.86537E-01  0.27742E-03       295.458  
   295.595      0.68270E+02  0.99639E-01  0.44531E-03       295.508  
   295.645      0.67800E+02  0.91424E-01  0.33476E-03       295.558  
   295.694      0.67430E+02  0.85102E-01  0.30848E-03       295.608  
   295.744      0.67110E+02  0.84871E-01  0.32686E-03       295.658  
   295.794      0.66690E+02  0.84452E-01  0.38426E-03       295.708  
   295.844      0.66390E+02  0.76454E-01  0.30475E-03       295.758  
   295.895      0.65970E+02  0.83599E-01  0.39635E-03       295.808  
   295.945      0.65690E+02  0.86311E-01  0.35515E-03       295.858  
   295.995      0.65040E+02  0.84635E-01  0.33530E-03       295.908  
   296.045      0.64360E+02  0.86872E-01  0.50681E-03       295.958  
   296.095      0.64160E+02  0.87352E-01  0.42058E-03       296.008  
   296.145      0.63520E+02  0.80449E-01  0.25001E-03       296.058  
   296.194      0.62500E+02  0.82625E-01  0.35585E-03       296.108  
   296.245      0.61850E+02  0.80510E-01  0.33754E-03       296.158  
   296.295      0.61340E+02  0.77882E-01  0.27303E-03       296.208  
   296.345      0.61140E+02  0.89169E-01  0.47119E-03       296.258  
   296.395      0.60610E+02  0.90836E-01  0.53756E-03       296.308  
   296.445      0.60480E+02  0.79525E-01  0.39392E-03       296.358  
   296.495      0.60470E+02  0.72313E-01  0.94779E-04       296.408  
   296.545      0.60000E+02  0.89807E-01  0.61751E-03       296.458  
   296.594      0.59820E+02  0.88374E-01  0.44736E-03       296.508  
   296.644      0.59990E+02  0.68287E-01  0.14742E-03       296.558  
   296.695      0.59560E+02  0.81534E-01  0.43937E-03       296.608  
   296.745      0.59320E+02  0.84467E-01  0.50851E-03       296.658  
   296.795      0.58990E+02  0.78578E-01  0.38300E-03       296.708  
   296.844      0.59250E+02  0.67869E-01  0.18327E-03       296.758  
   296.894      0.58810E+02  0.77299E-01  0.39660E-03       296.808  
   296.945      0.58330E+02  0.70914E-01  0.36845E-03       296.858  
   296.995      0.57370E+02  0.68572E-01  0.28995E-03       296.908  
   297.044      0.56850E+02  0.71027E-01  0.33291E-03       296.958  
   297.095      0.56320E+02  0.74897E-01  0.41798E-03       297.008  
   297.145      0.56010E+02  0.80708E-01  0.46433E-03       297.058  
   297.194      0.55570E+02  0.80528E-01  0.47393E-03       297.108  
   297.245      0.55160E+02  0.72688E-01  0.27400E-03       297.158  
   297.295      0.54590E+02  0.73227E-01  0.33732E-03       297.208  
   297.345      0.54440E+02  0.80639E-01  0.45901E-03       297.258  
   297.395      0.53990E+02  0.74584E-01  0.39860E-03       297.308  
   297.445      0.53430E+02  0.67163E-01  0.32758E-03       297.358  
   297.495      0.52980E+02  0.77433E-01  0.46042E-03       297.408  
   297.545      0.52630E+02  0.78508E-01  0.36760E-03       297.458  
   297.595      0.52100E+02  0.74196E-01  0.37538E-03       297.508  
   297.645      0.51830E+02  0.72779E-01  0.29092E-03       297.558  
   297.695      0.51500E+02  0.71261E-01  0.32746E-03       297.608  
   297.745      0.50870E+02  0.80148E-01  0.48508E-03       297.658  
   297.795      0.50570E+02  0.73297E-01  0.30597E-03       297.708  
   297.845      0.50270E+02  0.79386E-01  0.41155E-03       297.758  
   297.895      0.49910E+02  0.77125E-01  0.45607E-03       297.808  
   297.945      0.49640E+02  0.76712E-01  0.36399E-03       297.858  
   297.995      0.49160E+02  0.76878E-01  0.39583E-03       297.908  
   298.045      0.48820E+02  0.71154E-01  0.34064E-03       297.958  
   298.095      0.48600E+02  0.73443E-01  0.33648E-03       298.008  
   298.145      0.48490E+02  0.75762E-01  0.29755E-03       298.058  
   298.195      0.48170E+02  0.77194E-01  0.33756E-03       298.108  
   298.239      0.47840E+02  0.68313E-01  0.30081E-03       298.152  
   298.289      0.47460E+02  0.69306E-01  0.40414E-03       298.202  
   298.339      0.47240E+02  0.67782E-01  0.34605E-03       298.252  
   298.389      0.47000E+02  0.72798E-01  0.41161E-03       298.302  
   298.439      0.46700E+02  0.71920E-01  0.40226E-03       298.352  
   298.489      0.46160E+02  0.68389E-01  0.37684E-03       298.402  
   298.539      0.46050E+02  0.67239E-01  0.34884E-03       298.452  
   298.589      0.46060E+02  0.61214E-01  0.25611E-03       298.502  
   298.639      0.45740E+02  0.75425E-01  0.47866E-03       298.552  
   298.689      0.45640E+02  0.69355E-01  0.39295E-03       298.602  
   298.739      0.45750E+02  0.56806E-01  0.11579E-03       298.652  
   298.789      0.45110E+02  0.69397E-01  0.32861E-03       298.702  
   298.839      0.44990E+02  0.69333E-01  0.39294E-03       298.752  
   298.889      0.44810E+02  0.60949E-01  0.29109E-03       298.802  
   298.939      0.44400E+02  0.70387E-01  0.47367E-03       298.852  
   298.989      0.43920E+02  0.76618E-01  0.50576E-03       298.902  
   299.039      0.44030E+02  0.65886E-01  0.21136E-03       298.952  
   299.090      0.43360E+02  0.64106E-01  0.42988E-03       299.002  
   299.139      0.43210E+02  0.59796E-01  0.29783E-03       299.052  
   299.189      0.42640E+02  0.70696E-01  0.33370E-03       299.102  
   299.239      0.42080E+02  0.68299E-01  0.39059E-03       299.152  
   299.289      0.41920E+02  0.78785E-01  0.47782E-03       299.202  
   299.339      0.41400E+02  0.65575E-01  0.43693E-03       299.252  
   299.390      0.41060E+02  0.69985E-01  0.44832E-03       299.302  
   299.440      0.40660E+02  0.69408E-01  0.38000E-03       299.352  
   299.489      0.40170E+02  0.64505E-01  0.29149E-03       299.402  
   299.539      0.39870E+02  0.67927E-01  0.37547E-03       299.452  
   299.590      0.39840E+02  0.54609E-01  0.10571E-03       299.502  
   299.639      0.39260E+02  0.74989E-01  0.51341E-03       299.552  
   299.689      0.38840E+02  0.65992E-01  0.37326E-03       299.602  
   299.740      0.38610E+02  0.63750E-01  0.29329E-03       299.652  
   299.789      0.38340E+02  0.66328E-01  0.38442E-03       299.702  
   299.839      0.38140E+02  0.66797E-01  0.40825E-03       299.752  
   299.890      0.38290E+02  0.64055E-01  0.23825E-03       299.802  
   299.939      0.38130E+02  0.61196E-01  0.16815E-03       299.852  
   299.990      0.37870E+02  0.60574E-01  0.31339E-03       299.902  
   300.039      0.37670E+02  0.72689E-01  0.48163E-03       299.952  
   300.089      0.37570E+02  0.58820E-01  0.23894E-03       300.001  
   300.138      0.37220E+02  0.61263E-01  0.31829E-03       300.051  
   300.189      0.37280E+02  0.55062E-01  0.17713E-03       300.101  
   300.238      0.36790E+02  0.59633E-01  0.29358E-03       300.151  
   300.289      0.36680E+02  0.59876E-01  0.24120E-03       300.201  
   300.338      0.36360E+02  0.58437E-01  0.25659E-03       300.251  
   300.389      0.36290E+02  0.56722E-01  0.21157E-03       300.301  
   300.438      0.36010E+02  0.53848E-01  0.18226E-03       300.351  
   300.489      0.35770E+02  0.51350E-01  0.16117E-03       300.401  
   300.539      0.35630E+02  0.55724E-01  0.25087E-03       300.451  
   300.588      0.35520E+02  0.54279E-01  0.23478E-03       300.501  
   300.639      0.35310E+02  0.56717E-01  0.28221E-03       300.551  
   300.689      0.35080E+02  0.56465E-01  0.25871E-03       300.601  
   300.738      0.34680E+02  0.54394E-01  0.22834E-03       300.651  
   300.789      0.34460E+02  0.52960E-01  0.20729E-03       300.701  
   300.839      0.34190E+02  0.55099E-01  0.23104E-03       300.751  
   300.889      0.34030E+02  0.57669E-01  0.19489E-03       300.801  
   300.938      0.33590E+02  0.56125E-01  0.23187E-03       300.851  
   300.989      0.33170E+02  0.57359E-01  0.24943E-03       300.901  
   301.039      0.32870E+02  0.57182E-01  0.23115E-03       300.951  
   301.089      0.32710E+02  0.55156E-01  0.16140E-03       301.001  
   301.139      0.32320E+02  0.52229E-01  0.15899E-03       301.051  
   301.189      0.31930E+02  0.58946E-01  0.21358E-03       301.102  
   301.239      0.31640E+02  0.55484E-01  0.19144E-03       301.152  
   301.290      0.31350E+02  0.54169E-01  0.19254E-03       301.202  
   301.339      0.31180E+02  0.55871E-01  0.21585E-03       301.251  
   301.389      0.31030E+02  0.52587E-01  0.15784E-03       301.301  
   301.439      0.30750E+02  0.53151E-01  0.18238E-03       301.351  
   301.489      0.30540E+02  0.52579E-01  0.16518E-03       301.401  
   301.539      0.30280E+02  0.53496E-01  0.19308E-03       301.451  
   301.589      0.30190E+02  0.53286E-01  0.18870E-03       301.501  
   301.639      0.30060E+02  0.49998E-01  0.14932E-03       301.551  
   301.689      0.29970E+02  0.49700E-01  0.15202E-03       301.601  
   301.739      0.29800E+02  0.49976E-01  0.18323E-03       301.651  
   301.789      0.29680E+02  0.48533E-01  0.17822E-03       301.701  
   301.839      0.29670E+02  0.47155E-01  0.13903E-03       301.751  
   301.889      0.29480E+02  0.50128E-01  0.23152E-03       301.801  
   301.939      0.29400E+02  0.50497E-01  0.23548E-03       301.851  
   301.989      0.29300E+02  0.46798E-01  0.17132E-03       301.901  
   302.039      0.29130E+02  0.44841E-01  0.15113E-03       301.951  
   302.089      0.29070E+02  0.50802E-01  0.22007E-03       302.001  
   302.139      0.28850E+02  0.45782E-01  0.15899E-03       302.051  
   302.189      0.28740E+02  0.47642E-01  0.17120E-03       302.101  
   302.239      0.28400E+02  0.48449E-01  0.21549E-03       302.151  
   302.289      0.28360E+02  0.45002E-01  0.12934E-03       302.201  
   302.339      0.28220E+02  0.47806E-01  0.18181E-03       302.251  
   302.389      0.28030E+02  0.45545E-01  0.13424E-03       302.301  
   302.439      0.27690E+02  0.48370E-01  0.20334E-03       302.351  
   302.490      0.27470E+02  0.44901E-01  0.13716E-03       302.401  
   302.539      0.27210E+02  0.46297E-01  0.16030E-03       302.451  
   302.589      0.26980E+02  0.48527E-01  0.18459E-03       302.501  
   302.639      0.26810E+02  0.49222E-01  0.19758E-03       302.551  
   302.689      0.26520E+02  0.49216E-01  0.19896E-03       302.601  
   302.740      0.26250E+02  0.46909E-01  0.15145E-03       302.651  
   302.789      0.25930E+02  0.50897E-01  0.22732E-03       302.701  
   302.839      0.25760E+02  0.50718E-01  0.22549E-03       302.751  
   302.889      0.25590E+02  0.47751E-01  0.16833E-03       302.801  
   302.939      0.25360E+02  0.44794E-01  0.10175E-03       302.851  
   302.989      0.25040E+02  0.47075E-01  0.15143E-03       302.901  
   303.039      0.24740E+02  0.46064E-01  0.14682E-03       302.951  
   303.089      0.24550E+02  0.50639E-01  0.22211E-03       303.001  
   303.140      0.24380E+02  0.48617E-01  0.19391E-03       303.051  
   303.189      0.24310E+02  0.49689E-01  0.18776E-03       303.101  
   303.239      0.24000E+02  0.49692E-01  0.22510E-03       303.151  
   303.289      0.23660E+02  0.51362E-01  0.29608E-03       303.201  
   303.339      0.23670E+02  0.46328E-01  0.19837E-03       303.251  
   303.389      0.23700E+02  0.45346E-01  0.17626E-03       303.301  
   303.439      0.23380E+02  0.52070E-01  0.30192E-03       303.351  
   303.489      0.23350E+02  0.47271E-01  0.22829E-03       303.401  
   303.539      0.23170E+02  0.47381E-01  0.24398E-03       303.451  
   303.590      0.23130E+02  0.45643E-01  0.20582E-03       303.501  
   303.639      0.23050E+02  0.46893E-01  0.19821E-03       303.551  
   303.689      0.22880E+02  0.42314E-01  0.17572E-03       303.601  
   303.739      0.22630E+02  0.45130E-01  0.25449E-03       303.651  
   303.790      0.22730E+02  0.47277E-01  0.24812E-03       303.701  
   303.840      0.22690E+02  0.45364E-01  0.22868E-03       303.751  
   303.889      0.22760E+02  0.40583E-01  0.14102E-03       303.801  
   303.939      0.22640E+02  0.40150E-01  0.17558E-03       303.851  
   303.989      0.22660E+02  0.42092E-01  0.19402E-03       303.901  
   304.039      0.22530E+02  0.41773E-01  0.23101E-03       303.951  
   304.089      0.22480E+02  0.42107E-01  0.20482E-03       304.001  
   304.139      0.22420E+02  0.41104E-01  0.17695E-03       304.051  
   304.190      0.22120E+02  0.42107E-01  0.23049E-03       304.101  
   304.240      0.21930E+02  0.41867E-01  0.19579E-03       304.151  
   304.290      0.21820E+02  0.42096E-01  0.18327E-03       304.201  
   304.340      0.21690E+02  0.41999E-01  0.17528E-03       304.251  
   304.390      0.21490E+02  0.43003E-01  0.20119E-03       304.301  
   304.440      0.21380E+02  0.42185E-01  0.17870E-03       304.351  
   304.490      0.21180E+02  0.42625E-01  0.20358E-03       304.401  
   304.539      0.21150E+02  0.43305E-01  0.19278E-03       304.451  
   304.589      0.20960E+02  0.45826E-01  0.22997E-03       304.501  
   304.639      0.20770E+02  0.39583E-01  0.15321E-03       304.551  
   304.689      0.20330E+02  0.45939E-01  0.27752E-03       304.601  
   304.740      0.20230E+02  0.41021E-01  0.14984E-03       304.651  
   304.790      0.19920E+02  0.42828E-01  0.20417E-03       304.701  
   304.840      0.19830E+02  0.40489E-01  0.15412E-03       304.751  
   304.889      0.19750E+02  0.38440E-01  0.71725E-04       304.801  
   304.939      0.19450E+02  0.40165E-01  0.11356E-03       304.851  
   304.990      0.19170E+02  0.41843E-01  0.14712E-03       304.901  
   305.040      0.18930E+02  0.43616E-01  0.19869E-03       304.951  
   305.090      0.18850E+02  0.43592E-01  0.17775E-03       305.001  
   305.139      0.18590E+02  0.40903E-01  0.16507E-03       305.051  
   305.190      0.18410E+02  0.41466E-01  0.17059E-03       305.101  
   305.240      0.18180E+02  0.43178E-01  0.20387E-03       305.151  
   305.289      0.18070E+02  0.40539E-01  0.15189E-03       305.201  
   305.340      0.17990E+02  0.39460E-01  0.14535E-03       305.251  
   305.390      0.17830E+02  0.39556E-01  0.16445E-03       305.301  
   305.440      0.17830E+02  0.41319E-01  0.15059E-03       305.351  
   305.490      0.17560E+02  0.40597E-01  0.19097E-03       305.401  
   305.539      0.17500E+02  0.38623E-01  0.18493E-03       305.451  
   305.590      0.17570E+02  0.36389E-01  0.10548E-03       305.501  
   305.640      0.17480E+02  0.37025E-01  0.14867E-03       305.551  
   305.690      0.17430E+02  0.36651E-01  0.14334E-03       305.601  
   305.740      0.17450E+02  0.35207E-01  0.13627E-03       305.651  
   305.790      0.17330E+02  0.36199E-01  0.15824E-03       305.701  
   305.840      0.17360E+02  0.37086E-01  0.16035E-03       305.751  
   305.890      0.17180E+02  0.39449E-01  0.21424E-03       305.801  
   305.940      0.17080E+02  0.36874E-01  0.17193E-03       305.851  
   305.990      0.17060E+02  0.34882E-01  0.12059E-03       305.901  
   306.040      0.16880E+02  0.35452E-01  0.15836E-03       305.951  
   306.090      0.16860E+02  0.35725E-01  0.14925E-03       306.001  
   306.140      0.16820E+02  0.35443E-01  0.16842E-03       306.051  
   306.190      0.16820E+02  0.33909E-01  0.14539E-03       306.101  
   306.240      0.16900E+02  0.33987E-01  0.13538E-03       306.151  
   306.290      0.16750E+02  0.33080E-01  0.17453E-03       306.201  
   306.340      0.16780E+02  0.34112E-01  0.14900E-03       306.251  
   306.390      0.16700E+02  0.32665E-01  0.15065E-03       306.301  
   306.440      0.16550E+02  0.33061E-01  0.15704E-03       306.351  
   306.490      0.16410E+02  0.29519E-01  0.78502E-04       306.401  
   306.540      0.16180E+02  0.34110E-01  0.16882E-03       306.451  
   306.590      0.16100E+02  0.32734E-01  0.12575E-03       306.501  
   306.640      0.15920E+02  0.35295E-01  0.17120E-03       306.551  
   306.690      0.15730E+02  0.33675E-01  0.15174E-03       306.601  
   306.740      0.15620E+02  0.31675E-01  0.12216E-03       306.651  
   306.790      0.15490E+02  0.33759E-01  0.15953E-03       306.701  
   306.840      0.15420E+02  0.33027E-01  0.14375E-03       306.751  
   306.889      0.15340E+02  0.32177E-01  0.11829E-03       306.800  
   306.940      0.15090E+02  0.35647E-01  0.18231E-03       306.850  
   306.990      0.14890E+02  0.33463E-01  0.13577E-03       306.900  
   307.039      0.14750E+02  0.36467E-01  0.17083E-03       306.950  
   307.089      0.14590E+02  0.35233E-01  0.15831E-03       307.000  
   307.139      0.14440E+02  0.37784E-01  0.17399E-03       307.050  
   307.189      0.14240E+02  0.32831E-01  0.92028E-04       307.100  
   307.239      0.13990E+02  0.34132E-01  0.13252E-03       307.150  
   307.290      0.13900E+02  0.35038E-01  0.13985E-03       307.200  
   307.340      0.13800E+02  0.33793E-01  0.10707E-03       307.250  
   307.390      0.13670E+02  0.34606E-01  0.13723E-03       307.300  
   307.440      0.13540E+02  0.33250E-01  0.11361E-03       307.350  
   307.489      0.13370E+02  0.33610E-01  0.11686E-03       307.400  
   307.539      0.13190E+02  0.33237E-01  0.13856E-03       307.450  
   307.589      0.13180E+02  0.35192E-01  0.15500E-03       307.500  
   307.639      0.13150E+02  0.31528E-01  0.87143E-04       307.550  
   307.689      0.13030E+02  0.31408E-01  0.91052E-04       307.600  
   307.740      0.12910E+02  0.33163E-01  0.14456E-03       307.650  
   307.790      0.12880E+02  0.33103E-01  0.15757E-03       307.700  
   307.839      0.12990E+02  0.31690E-01  0.12016E-03       307.750  
   307.889      0.12910E+02  0.31510E-01  0.14800E-03       307.800  
   307.940      0.12940E+02  0.29480E-01  0.11859E-03       307.850  
   307.990      0.12950E+02  0.29464E-01  0.12170E-03       307.900  
   308.039      0.12880E+02  0.27610E-01  0.11424E-03       307.950  
   308.090      0.12870E+02  0.30575E-01  0.16156E-03       308.000  
   308.140      0.12790E+02  0.27501E-01  0.12846E-03       308.050  
   308.189      0.12620E+02  0.29428E-01  0.19595E-03       308.100  
   308.240      0.12710E+02  0.27426E-01  0.13190E-03       308.150  
   308.290      0.12640E+02  0.28914E-01  0.15284E-03       308.200  
   308.339      0.12430E+02  0.30009E-01  0.19552E-03       308.250  
   308.390      0.12350E+02  0.28161E-01  0.13935E-03       308.300  
   308.439      0.12230E+02  0.31216E-01  0.16329E-03       308.350  
   308.490      0.12040E+02  0.29576E-01  0.14371E-03       308.400  
   308.539      0.11960E+02  0.30120E-01  0.15344E-03       308.450  
   308.590      0.12040E+02  0.28370E-01  0.11210E-03       308.500  
   308.640      0.12080E+02  0.27413E-01  0.12529E-03       308.550  
   308.690      0.12080E+02  0.27319E-01  0.13361E-03       308.600  
   308.739      0.12040E+02  0.25338E-01  0.10023E-03       308.650  
   308.790      0.11980E+02  0.28102E-01  0.15491E-03       308.700  
   308.839      0.11980E+02  0.25959E-01  0.10971E-03       308.750  
   308.890      0.11960E+02  0.26287E-01  0.91234E-04       308.800  
   308.939      0.11820E+02  0.27033E-01  0.12993E-03       308.850  
   308.990      0.11750E+02  0.26463E-01  0.10341E-03       308.900  
   309.040      0.11760E+02  0.27013E-01  0.10479E-03       308.950  
   309.089      0.11620E+02  0.30396E-01  0.19530E-03       309.000  
   309.140      0.11600E+02  0.26218E-01  0.11509E-03       309.050  
   309.190      0.11390E+02  0.28411E-01  0.16218E-03       309.100  
   309.239      0.11210E+02  0.27121E-01  0.13474E-03       309.150  
   309.290      0.11100E+02  0.25949E-01  0.13430E-03       309.200  
   309.340      0.11060E+02  0.25887E-01  0.11256E-03       309.250  
   309.390      0.10880E+02  0.28191E-01  0.16831E-03       309.300  
   309.439      0.10590E+02  0.29344E-01  0.18914E-03       309.350  
   309.490      0.10290E+02  0.30253E-01  0.17873E-03       309.400  
   309.540      0.10160E+02  0.30181E-01  0.17201E-03       309.450  
   309.590      0.10040E+02  0.29624E-01  0.17283E-03       309.500  
   309.640      0.99500E+01  0.26411E-01  0.11662E-03       309.550  
   309.690      0.98100E+01  0.26232E-01  0.99615E-04       309.600  
   309.739      0.96700E+01  0.29773E-01  0.16037E-03       309.650  
   309.790      0.96800E+01  0.28589E-01  0.13470E-03       309.700  
   309.840      0.96800E+01  0.27242E-01  0.12405E-03       309.750  
   309.890      0.96300E+01  0.25178E-01  0.91167E-04       309.800  
   309.940      0.95200E+01  0.26641E-01  0.12870E-03       309.850  
   309.990      0.94900E+01  0.27618E-01  0.14930E-03       309.900  
   310.040      0.95000E+01  0.25056E-01  0.10806E-03       309.950  
   310.090      0.95500E+01  0.24024E-01  0.66669E-04       310.000  
   310.140      0.95300E+01  0.24936E-01  0.10040E-03       310.050  
   310.190      0.94800E+01  0.26216E-01  0.13012E-03       310.100  
   310.240      0.95600E+01  0.23539E-01  0.91410E-04       310.150  
   310.290      0.95600E+01  0.23671E-01  0.96206E-04       310.200  
   310.340      0.95100E+01  0.23011E-01  0.11575E-03       310.250  
   310.390      0.95100E+01  0.21847E-01  0.78504E-04       310.300  
   310.440      0.92800E+01  0.24646E-01  0.16966E-03       310.350  
   310.491      0.92200E+01  0.22769E-01  0.12080E-03       310.400  
   310.540      0.90200E+01  0.23991E-01  0.13993E-03       310.450  
   310.590      0.89700E+01  0.21429E-01  0.11830E-03       310.500  
   310.640      0.89100E+01  0.22925E-01  0.12844E-03       310.550  
   310.690      0.89200E+01  0.22412E-01  0.10865E-03       310.600  
   310.740      0.88700E+01  0.24863E-01  0.14775E-03       310.650  
   310.790      0.88700E+01  0.24546E-01  0.14297E-03       310.700  
   310.840      0.88000E+01  0.22284E-01  0.11463E-03       310.750  
   310.890      0.87300E+01  0.23343E-01  0.13489E-03       310.800  
   310.940      0.86900E+01  0.22884E-01  0.10096E-03       310.850  
   310.990      0.86100E+01  0.23527E-01  0.14039E-03       310.900  
   311.040      0.86200E+01  0.21005E-01  0.73546E-04       310.950  
   311.090      0.85800E+01  0.21917E-01  0.88431E-04       311.000  
   311.141      0.85400E+01  0.22301E-01  0.11333E-03       311.050  
   311.190      0.85000E+01  0.23304E-01  0.11966E-03       311.100  
   311.240      0.86000E+01  0.20074E-01  0.56484E-04       311.150  
   311.290      0.85500E+01  0.20314E-01  0.82113E-04       311.200  
   311.340      0.85600E+01  0.21913E-01  0.12014E-03       311.250  
   311.391      0.85700E+01  0.20586E-01  0.93911E-04       311.300  
   311.440      0.85800E+01  0.20886E-01  0.12123E-03       311.350  
   311.491      0.85000E+01  0.19283E-01  0.11520E-03       311.400  
   311.540      0.84000E+01  0.18357E-01  0.91229E-04       311.450  
   311.591      0.83200E+01  0.19924E-01  0.12268E-03       311.500  
   311.640      0.82200E+01  0.19461E-01  0.11011E-03       311.550  
   311.691      0.80700E+01  0.18852E-01  0.10248E-03       311.600  
   311.740      0.79500E+01  0.22046E-01  0.13801E-03       311.650  
   311.791      0.77900E+01  0.20601E-01  0.13787E-03       311.700  
   311.840      0.77400E+01  0.21734E-01  0.12811E-03       311.750  
   311.891      0.76600E+01  0.21161E-01  0.99927E-04       311.800  
   311.940      0.75600E+01  0.21523E-01  0.10000E-03       311.850  
   311.990      0.74100E+01  0.22797E-01  0.13632E-03       311.900  
   312.041      0.73600E+01  0.21086E-01  0.11484E-03       311.950  
   312.090      0.73000E+01  0.20738E-01  0.95152E-04       312.000  
   312.140      0.72400E+01  0.21950E-01  0.10944E-03       312.050  
   312.191      0.71700E+01  0.21763E-01  0.12639E-03       312.100  
   312.240      0.71400E+01  0.19196E-01  0.72495E-04       312.150  
   312.290      0.70500E+01  0.20370E-01  0.11688E-03       312.200  
   312.341      0.69900E+01  0.20244E-01  0.11535E-03       312.250  
   312.391      0.69500E+01  0.20490E-01  0.11311E-03       312.300  
   312.440      0.68500E+01  0.21046E-01  0.12208E-03       312.350  
   312.490      0.67700E+01  0.20624E-01  0.10653E-03       312.400  
   312.541      0.66600E+01  0.21954E-01  0.13027E-03       312.450  
   312.591      0.65900E+01  0.21677E-01  0.13715E-03       312.500  
   312.641      0.65900E+01  0.19331E-01  0.84599E-04       312.550  
   312.691      0.65700E+01  0.20581E-01  0.96653E-04       312.600  
   312.740      0.65100E+01  0.19816E-01  0.89703E-04       312.650  
   312.790      0.64600E+01  0.20647E-01  0.10963E-03       312.700  
   312.840      0.64000E+01  0.19534E-01  0.10630E-03       312.750  
   312.891      0.63800E+01  0.20591E-01  0.10124E-03       312.800  
   312.941      0.64100E+01  0.18627E-01  0.85815E-04       312.850  
   312.991      0.63500E+01  0.19050E-01  0.90264E-04       312.900  
   313.041      0.62900E+01  0.20178E-01  0.11215E-03       312.950  
   313.091      0.62900E+01  0.17999E-01  0.58756E-04       313.000  
   313.141      0.62700E+01  0.19877E-01  0.11246E-03       313.050  
   313.191      0.62100E+01  0.19494E-01  0.13007E-03       313.100  
   313.241      0.62100E+01  0.17503E-01  0.86022E-04       313.150  
   313.291      0.63300E+01  0.18439E-01  0.76582E-04       313.200  
   313.341      0.63400E+01  0.17435E-01  0.66237E-04       313.250  
   313.391      0.64300E+01  0.15524E-01  0.54849E-04       313.300  
   313.440      0.65200E+01  0.14439E-01  0.43422E-04       313.350  
   313.490      0.65500E+01  0.15832E-01  0.91369E-04       313.400  
   313.541      0.65700E+01  0.14725E-01  0.93548E-04       313.450  
   313.591      0.65200E+01  0.15164E-01  0.11057E-03       313.500  
   313.641      0.65400E+01  0.14232E-01  0.68620E-04       313.550  
   313.691      0.64600E+01  0.16615E-01  0.11016E-03       313.600  
   313.741      0.63300E+01  0.18094E-01  0.12640E-03       313.650  
   313.790      0.62800E+01  0.14510E-01  0.78205E-04       313.700  
   313.841      0.61900E+01  0.16932E-01  0.12917E-03       313.750  
   313.891      0.61000E+01  0.15434E-01  0.10511E-03       313.800  
   313.941      0.60500E+01  0.18198E-01  0.11002E-03       313.850  
   313.990      0.59700E+01  0.17983E-01  0.98097E-04       313.900  
   314.041      0.58800E+01  0.16838E-01  0.10470E-03       313.950  
   314.091      0.57900E+01  0.19590E-01  0.13849E-03       314.000  
   314.140      0.56600E+01  0.19315E-01  0.16503E-03       314.049  
   314.190      0.56000E+01  0.17006E-01  0.10943E-03       314.099  
   314.240      0.54500E+01  0.18617E-01  0.13183E-03       314.149  
   314.290      0.54300E+01  0.16830E-01  0.94807E-04       314.199  
   314.340      0.53500E+01  0.17232E-01  0.85437E-04       314.249  
   314.390      0.52600E+01  0.17019E-01  0.70040E-04       314.299  
   314.440      0.51200E+01  0.18155E-01  0.10160E-03       314.349  
   314.490      0.50300E+01  0.18753E-01  0.11081E-03       314.399  
   314.540      0.49300E+01  0.18872E-01  0.91181E-04       314.449  
   314.590      0.49000E+01  0.17948E-01  0.77935E-04       314.499  
   314.641      0.48700E+01  0.17608E-01  0.68286E-04       314.549  
   314.690      0.48200E+01  0.18011E-01  0.58802E-04       314.599  
   314.741      0.48200E+01  0.16453E-01  0.58874E-04       314.649  
   314.790      0.48300E+01  0.15621E-01  0.34336E-04       314.699  
   314.841      0.47700E+01  0.16395E-01  0.85818E-04       314.749  
   314.890      0.48600E+01  0.14226E-01  0.26633E-04       314.799  
   314.940      0.47800E+01  0.14555E-01  0.59870E-04       314.849  
   314.990      0.47100E+01  0.16390E-01  0.95004E-04       314.899  
   315.040      0.46800E+01  0.15490E-01  0.86579E-04       314.949  
   315.091      0.46100E+01  0.16647E-01  0.12313E-03       314.999  
   315.140      0.45800E+01  0.16599E-01  0.12791E-03       315.049  
   315.190      0.46400E+01  0.13870E-01  0.54673E-04       315.099  
   315.241      0.46900E+01  0.13767E-01  0.37454E-04       315.149  
   315.290      0.47000E+01  0.14474E-01  0.51761E-04       315.199  
   315.340      0.47800E+01  0.13817E-01  0.11799E-04       315.249  
   315.391      0.48000E+01  0.14526E-01  0.47142E-04       315.299  
   315.440      0.49800E+01  0.13015E-01  0.76861E-05       315.349  
   315.490      0.51600E+01  0.11593E-01 -0.81459E-05       315.399  
   315.540      0.52200E+01  0.10448E-01 -0.35908E-05       315.449  
   315.591      0.52000E+01  0.10677E-01  0.24606E-04       315.499  
   315.641      0.51300E+01  0.10642E-01  0.64981E-04       315.549  
   315.690      0.50500E+01  0.11032E-01  0.73581E-04       315.599  
   315.740      0.49600E+01  0.11094E-01  0.63127E-04       315.649  
   315.790      0.48200E+01  0.12111E-01  0.81390E-04       315.699  
   315.840      0.47000E+01  0.12962E-01  0.12562E-03       315.749  
   315.891      0.46100E+01  0.12584E-01  0.10154E-03       315.799  
   315.941      0.45300E+01  0.12304E-01  0.94533E-04       315.849  
   315.991      0.43800E+01  0.13168E-01  0.98905E-04       315.899  
   316.041      0.42800E+01  0.13908E-01  0.11282E-03       315.949  
   316.091      0.42000E+01  0.13473E-01  0.11281E-03       315.999  
   316.141      0.42100E+01  0.12365E-01  0.64767E-04       316.049  
   316.191      0.41500E+01  0.13684E-01  0.73911E-04       316.099  
   316.241      0.41400E+01  0.13034E-01  0.50005E-04       316.149  
   316.291      0.40800E+01  0.13544E-01  0.67301E-04       316.199  
   316.341      0.40200E+01  0.13777E-01  0.88070E-04       316.249  
   316.391      0.39600E+01  0.14354E-01  0.10957E-03       316.299  
   316.441      0.39400E+01  0.14353E-01  0.89777E-04       316.349  
   316.491      0.39100E+01  0.13107E-01  0.56488E-04       316.399  
   316.541      0.37800E+01  0.14355E-01  0.95179E-04       316.449  
   316.591      0.37400E+01  0.13941E-01  0.93527E-04       316.499  
   316.641      0.36800E+01  0.14548E-01  0.10330E-03       316.549  
   316.690      0.36100E+01  0.14404E-01  0.92323E-04       316.599  
   316.740      0.35500E+01  0.14594E-01  0.92946E-04       316.649  
   316.791      0.35200E+01  0.14996E-01  0.10076E-03       316.699  
   316.841      0.35300E+01  0.14298E-01  0.79294E-04       316.749  
   316.891      0.35700E+01  0.13752E-01  0.64874E-04       316.799  
   316.941      0.36900E+01  0.13101E-01  0.19779E-04       316.849  
   316.990      0.38000E+01  0.12355E-01  0.33309E-05       316.899  
   317.041      0.38400E+01  0.11837E-01  0.15195E-04       316.949  
   317.091      0.38800E+01  0.11037E-01  0.60985E-05       316.999  
   317.141      0.38000E+01  0.12720E-01  0.61668E-04       317.049  
   317.190      0.37700E+01  0.11904E-01  0.75421E-04       317.099  
   317.241      0.37200E+01  0.12284E-01  0.79433E-04       317.149  
   317.291      0.36900E+01  0.11649E-01  0.63929E-04       317.199  
   317.340      0.36100E+01  0.12753E-01  0.98535E-04       317.249  
   317.391      0.35700E+01  0.12318E-01  0.10186E-03       317.299  
   317.441      0.35800E+01  0.12067E-01  0.83736E-04       317.349  
   317.491      0.36700E+01  0.11507E-01  0.55069E-04       317.399  
   317.541      0.38600E+01  0.95620E-02 -0.15744E-04       317.449  
   317.590      0.39700E+01  0.90469E-02 -0.25179E-04       317.499  
   317.641      0.40500E+01  0.73187E-02 -0.42932E-04       317.549  
   317.691      0.40100E+01  0.76134E-02  0.10721E-04       317.599  
   317.741      0.39000E+01  0.87092E-02  0.67838E-04       317.649  
   317.791      0.37700E+01  0.98660E-02  0.10273E-03       317.699  
   317.841      0.36600E+01  0.10892E-01  0.14673E-03       317.749  
   317.891      0.35500E+01  0.11832E-01  0.14029E-03       317.799  
   317.941      0.34200E+01  0.12641E-01  0.15715E-03       317.849  
   317.991      0.33600E+01  0.12467E-01  0.13679E-03       317.899  
   318.041      0.33600E+01  0.11871E-01  0.11611E-03       317.949  
   318.091      0.34000E+01  0.10910E-01  0.74942E-04       317.999  
   318.141      0.34100E+01  0.10633E-01  0.56460E-04       318.049  
   318.191      0.33100E+01  0.10720E-01  0.75841E-04       318.099  
   318.241      0.31800E+01  0.11587E-01  0.10395E-03       318.149  
   318.291      0.30900E+01  0.11805E-01  0.11609E-03       318.199  
   318.341      0.30100E+01  0.12637E-01  0.12420E-03       318.249  
   318.391      0.29600E+01  0.12640E-01  0.12018E-03       318.299  
   318.441      0.28400E+01  0.13141E-01  0.11371E-03       318.349  
   318.491      0.28000E+01  0.11964E-01  0.82068E-04       318.399  
   318.541      0.27200E+01  0.12367E-01  0.96785E-04       318.449  
   318.591      0.26900E+01  0.12803E-01  0.92132E-04       318.499  
   318.641      0.26500E+01  0.13710E-01  0.11852E-03       318.549  
   318.692      0.27000E+01  0.11415E-01  0.44687E-04       318.599  
   318.741      0.26200E+01  0.12423E-01  0.76699E-04       318.649  
   318.791      0.25400E+01  0.12389E-01  0.97137E-04       318.699  
   318.841      0.25700E+01  0.11798E-01  0.79999E-04       318.749  
   318.891      0.25500E+01  0.11422E-01  0.62219E-04       318.799  
   318.942      0.24600E+01  0.12801E-01  0.99237E-04       318.849  
   318.991      0.24200E+01  0.12433E-01  0.92193E-04       318.899  
   319.041      0.23900E+01  0.12097E-01  0.79072E-04       318.949  
   319.091      0.23400E+01  0.12350E-01  0.66504E-04       318.999  
   319.141      0.23500E+01  0.12035E-01  0.76416E-04       319.049  
   319.191      0.23500E+01  0.12249E-01  0.73545E-04       319.099  
   319.241      0.24500E+01  0.11041E-01  0.31822E-04       319.149  
   319.291      0.25200E+01  0.10679E-01  0.16811E-04       319.199  
   319.341      0.26700E+01  0.89696E-02 -0.32915E-04       319.249  
   319.391      0.28000E+01  0.93531E-02 -0.34781E-04       319.299  
   319.441      0.30000E+01  0.69030E-02 -0.66776E-04       319.349  
   319.491      0.30300E+01  0.71075E-02 -0.37468E-04       319.399  
   319.541      0.30000E+01  0.74599E-02  0.14504E-04       319.449  
   319.591      0.29900E+01  0.72578E-02  0.12282E-04       319.499  
   319.641      0.28700E+01  0.94945E-02  0.78600E-04       319.549  
   319.697      0.27400E+01  0.10505E-01  0.12562E-03       319.605  
   319.741      0.27000E+01  0.10119E-01  0.12079E-03       319.649  
   319.791      0.26700E+01  0.98893E-02  0.10363E-03       319.699  
   319.841      0.26700E+01  0.98927E-02  0.87779E-04       319.749  
   319.892      0.27000E+01  0.88069E-02  0.69668E-04       319.799  
   319.942      0.29400E+01  0.71556E-02 -0.28267E-05       319.849  
   319.992      0.31500E+01  0.54376E-02 -0.67042E-04       319.899  
   320.041      0.31900E+01  0.47717E-02 -0.72730E-04       319.949  
   320.091      0.30300E+01  0.68656E-02  0.43765E-04       319.999  
   320.141      0.29680E+01  0.70554E-02  0.37945E-04       320.049  
   320.192      0.28410E+01  0.76376E-02  0.44954E-04       320.099  
   320.242      0.27480E+01  0.79116E-02  0.29976E-04       320.149  
   320.291      0.26410E+01  0.87621E-02  0.41489E-04       320.199  
   320.341      0.25570E+01  0.91078E-02  0.42784E-04       320.249  
   320.392      0.24730E+01  0.93934E-02  0.43334E-04       320.299  
   320.442      0.23940E+01  0.94085E-02  0.33443E-04       320.349  
   320.491      0.23130E+01  0.94834E-02  0.38362E-04       320.399  
   320.543      0.23000E+01  0.94618E-02  0.42776E-04       320.450  
   320.593      0.22940E+01  0.89283E-02  0.30786E-04       320.500  
   320.642      0.22500E+01  0.91791E-02  0.35150E-04       320.550  
   320.693      0.21850E+01  0.92111E-02  0.31714E-04       320.600  
   320.743      0.20970E+01  0.93107E-02  0.31515E-04       320.650  
   320.792      0.20160E+01  0.94548E-02  0.32701E-04       320.700  
   320.843      0.19850E+01  0.96492E-02  0.31854E-04       320.750  
   320.892      0.19260E+01  0.97981E-02  0.33383E-04       320.800  
   320.943      0.18460E+01  0.96817E-02  0.29219E-04       320.850  
   320.992      0.17860E+01  0.95783E-02  0.29091E-04       320.900  
   321.043      0.17530E+01  0.97115E-02  0.28372E-04       320.950  
   321.092      0.17150E+01  0.99061E-02  0.34698E-04       321.000  
   321.141      0.16960E+01  0.97653E-02  0.36339E-04       321.048  
   321.192      0.16780E+01  0.94474E-02  0.34584E-04       321.100  
   321.242      0.16720E+01  0.94549E-02  0.38592E-04       321.149  
   321.291      0.16800E+01  0.93572E-02  0.42115E-04       321.199  
   321.342      0.16770E+01  0.88691E-02  0.39318E-04       321.249  
   321.392      0.16930E+01  0.87551E-02  0.38797E-04       321.299  
   321.442      0.17020E+01  0.86820E-02  0.39890E-04       321.349  
   321.492      0.16910E+01  0.85461E-02  0.38311E-04       321.399  
   321.541      0.16750E+01  0.85193E-02  0.36905E-04       321.449  
   321.592      0.16650E+01  0.84584E-02  0.36528E-04       321.499  
   321.642      0.16420E+01  0.88186E-02  0.40437E-04       321.549  
   321.692      0.16130E+01  0.88031E-02  0.42077E-04       321.599  
   321.742      0.16190E+01  0.87098E-02  0.42296E-04       321.649  
   321.792      0.16370E+01  0.88950E-02  0.53899E-04       321.699  
   321.841      0.16830E+01  0.80582E-02  0.40715E-04       321.749  
   321.892      0.17670E+01  0.79915E-02  0.51609E-04       321.799  
   321.942      0.19680E+01  0.66593E-02  0.48968E-04       321.849  
   321.992      0.21800E+01  0.57535E-02  0.66303E-04       321.899  
   322.041      0.22840E+01  0.51262E-02  0.51960E-04       321.949  
   322.092      0.23230E+01  0.49099E-02  0.45393E-04       321.999  
   322.142      0.23280E+01  0.53076E-02  0.46271E-04       322.049  
   322.192      0.22770E+01  0.55235E-02  0.40444E-04       322.099  
   322.242      0.22110E+01  0.56992E-02  0.34915E-04       322.149  
   322.292      0.21520E+01  0.61952E-02  0.33071E-04       322.199  
   322.334      0.21000E+01  0.64870E-02  0.32487E-04       322.241  
   322.384      0.20410E+01  0.65950E-02  0.30550E-04       322.291  
   322.434      0.19660E+01  0.68544E-02  0.32217E-04       322.341  
   322.484      0.19540E+01  0.69667E-02  0.31915E-04       322.391  
   322.534      0.19620E+01  0.68516E-02  0.44893E-04       322.441  
   322.584      0.20570E+01  0.61891E-02  0.56235E-04       322.491  
   322.634      0.22010E+01  0.53535E-02  0.43266E-04       322.541  
   322.684      0.22700E+01  0.51390E-02  0.38460E-04       322.591  
   322.734      0.22310E+01  0.49754E-02  0.29368E-04       322.641  
   322.784      0.21820E+01  0.54872E-02  0.29506E-04       322.691  
   322.834      0.21430E+01  0.55446E-02  0.23524E-04       322.741  
   322.884      0.20630E+01  0.59300E-02  0.27212E-04       322.791  
   322.934      0.19710E+01  0.62740E-02  0.22399E-04       322.841  
   322.984      0.18840E+01  0.65062E-02  0.24822E-04       322.891  
   323.034      0.17890E+01  0.69019E-02  0.22718E-04       322.941  
   323.084      0.17340E+01  0.71695E-02  0.25368E-04       322.991  
   323.134      0.16730E+01  0.74624E-02  0.24526E-04       323.041  
   323.184      0.15900E+01  0.76980E-02  0.26647E-04       323.091  
   323.234      0.15060E+01  0.75904E-02  0.21916E-04       323.141  
   323.285      0.14590E+01  0.78322E-02  0.25000E-04       323.191  
   323.335      0.14180E+01  0.76612E-02  0.21692E-04       323.241  
   323.384      0.13640E+01  0.80225E-02  0.31417E-04       323.291  
   323.434      0.13030E+01  0.77670E-02  0.26122E-04       323.341  
   323.484      0.12610E+01  0.79823E-02  0.26164E-04       323.391  
   323.535      0.12130E+01  0.79027E-02  0.27371E-04       323.441  
   323.585      0.11960E+01  0.76559E-02  0.23251E-04       323.491  
   323.634      0.11680E+01  0.77687E-02  0.23208E-04       323.541  
   323.684      0.11040E+01  0.75387E-02  0.24097E-04       323.591  
   323.735      0.10730E+01  0.77469E-02  0.28791E-04       323.641  
   323.785      0.10420E+01  0.78146E-02  0.30404E-04       323.691  
   323.834      0.10240E+01  0.77106E-02  0.30388E-04       323.741  
   323.885      0.10060E+01  0.79755E-02  0.36659E-04       323.791  
   323.935      0.10010E+01  0.77066E-02  0.35300E-04       323.841  
   323.984      0.99800E+00  0.74972E-02  0.35283E-04       323.891  
   324.035      0.10170E+01  0.73068E-02  0.37945E-04       323.941  
   324.084      0.10490E+01  0.70604E-02  0.35885E-04       323.991  
   324.133      0.10830E+01  0.69546E-02  0.43034E-04       324.040  
   324.184      0.11340E+01  0.62660E-02  0.32734E-04       324.090  
   324.233      0.11560E+01  0.63230E-02  0.37284E-04       324.140  
   324.284      0.11680E+01  0.60441E-02  0.31630E-04       324.190  
   324.333      0.11690E+01  0.62036E-02  0.33396E-04       324.240  
   324.384      0.11520E+01  0.62596E-02  0.34712E-04       324.290  
   324.434      0.11400E+01  0.61691E-02  0.32735E-04       324.340  
   324.484      0.11500E+01  0.57489E-02  0.24433E-04       324.390  
   324.534      0.11320E+01  0.62167E-02  0.35298E-04       324.440  
   324.584      0.11380E+01  0.61685E-02  0.33268E-04       324.490  
   324.633      0.11480E+01  0.60903E-02  0.36672E-04       324.540  
   324.684      0.12110E+01  0.58983E-02  0.34930E-04       324.590  
   324.733      0.13720E+01  0.48504E-02  0.33158E-04       324.640  
   324.784      0.15610E+01  0.41165E-02  0.46421E-04       324.690  
   324.834      0.16610E+01  0.38621E-02  0.48528E-04       324.740  
   324.884      0.17340E+01  0.30160E-02  0.25036E-04       324.790  
   324.934      0.17310E+01  0.35314E-02  0.32022E-04       324.840  
   324.983      0.16890E+01  0.37405E-02  0.26301E-04       324.890  
   325.034      0.16290E+01  0.37012E-02  0.25880E-04       324.940  
   325.084      0.15910E+01  0.40912E-02  0.29016E-04       324.990  
   325.133      0.15210E+01  0.43183E-02  0.26217E-04       325.040  
   325.184      0.14720E+01  0.43485E-02  0.20734E-04       325.090  
   325.234      0.13900E+01  0.47897E-02  0.18789E-04       325.140  
   325.284      0.13460E+01  0.48648E-02  0.17287E-04       325.190  
   325.333      0.13140E+01  0.50294E-02  0.19747E-04       325.240  
   325.384      0.12940E+01  0.56121E-02  0.29378E-04       325.290  
   325.434      0.12940E+01  0.53397E-02  0.37277E-04       325.340  
   325.484      0.13790E+01  0.45500E-02  0.30641E-04       325.390  
   325.534      0.13960E+01  0.44156E-02  0.26778E-04       325.440  
   325.583      0.13860E+01  0.42622E-02  0.22549E-04       325.490  
   325.634      0.13510E+01  0.45197E-02  0.26199E-04       325.540  
   325.684      0.13170E+01  0.45089E-02  0.23482E-04       325.590  
   325.734      0.12430E+01  0.48880E-02  0.23562E-04       325.640  
   325.784      0.12160E+01  0.48270E-02  0.19751E-04       325.690  
   325.834      0.11560E+01  0.48939E-02  0.18526E-04       325.740  
   325.884      0.11160E+01  0.49229E-02  0.17994E-04       325.790  
   325.934      0.10810E+01  0.52194E-02  0.16666E-04       325.840  
   325.983      0.10080E+01  0.54135E-02  0.19784E-04       325.890  
   326.035      0.97400E+00  0.56443E-02  0.21949E-04       325.940  
   326.084      0.96100E+00  0.57909E-02  0.20879E-04       325.990  
   326.134      0.92500E+00  0.57487E-02  0.18567E-04       326.040  
   326.184      0.88100E+00  0.60777E-02  0.26035E-04       326.090  
   326.234      0.85500E+00  0.60129E-02  0.22353E-04       326.140  
   326.285      0.82600E+00  0.63100E-02  0.28838E-04       326.190  
   326.335      0.81700E+00  0.60902E-02  0.24341E-04       326.240  
   326.385      0.79400E+00  0.57341E-02  0.19475E-04       326.290  
   326.434      0.76900E+00  0.57484E-02  0.24023E-04       326.340  
   326.484      0.74800E+00  0.57077E-02  0.24596E-04       326.390  
   326.534      0.72600E+00  0.54108E-02  0.21202E-04       326.440  
   326.584      0.72000E+00  0.55980E-02  0.21563E-04       326.490  
   326.634      0.70200E+00  0.53479E-02  0.18988E-04       326.540  
   326.684      0.68200E+00  0.52718E-02  0.19305E-04       326.590  
   326.734      0.67500E+00  0.54065E-02  0.20086E-04       326.640  
   326.785      0.65000E+00  0.53823E-02  0.24722E-04       326.690  
   326.834      0.64700E+00  0.51922E-02  0.21343E-04       326.740  
   326.884      0.64500E+00  0.50791E-02  0.19698E-04       326.790  
   326.934      0.65300E+00  0.51781E-02  0.21597E-04       326.840  
   326.984      0.67700E+00  0.47535E-02  0.21089E-04       326.890  
   327.035      0.70600E+00  0.50607E-02  0.34114E-04       326.940  
   327.084      0.75500E+00  0.46268E-02  0.27617E-04       326.990  
   327.134      0.80200E+00  0.43087E-02  0.30439E-04       327.040  
   327.184      0.85400E+00  0.36840E-02  0.21264E-04       327.090  
   327.235      0.87000E+00  0.36122E-02  0.22063E-04       327.140  
   327.284      0.87200E+00  0.35976E-02  0.19035E-04       327.190  
   327.334      0.86600E+00  0.37986E-02  0.22475E-04       327.240  
   327.385      0.85800E+00  0.39428E-02  0.22601E-04       327.290  
   327.434      0.83000E+00  0.37009E-02  0.21067E-04       327.340  
   327.484      0.80900E+00  0.36578E-02  0.15098E-04       327.390  
   327.535      0.79200E+00  0.36929E-02  0.15968E-04       327.440  
   327.584      0.78100E+00  0.37410E-02  0.19041E-04       327.490  
   327.635      0.78500E+00  0.37899E-02  0.18363E-04       327.540  
   327.684      0.80400E+00  0.35805E-02  0.10895E-04       327.590  
   327.735      0.87100E+00  0.37828E-02  0.29933E-04       327.640  
   327.784      0.98300E+00  0.34809E-02  0.30079E-04       327.690  
   327.834      0.10750E+01  0.27688E-02  0.15527E-04       327.740  
   327.885      0.11350E+01  0.25473E-02  0.26484E-04       327.790  
   327.934      0.12160E+01  0.20727E-02  0.21907E-04       327.840  
   327.985      0.12500E+01  0.19796E-02  0.18228E-04       327.890  
   328.034      0.12500E+01  0.22075E-02  0.15296E-04       327.940  
   328.084      0.12240E+01  0.23903E-02  0.18449E-04       327.990  
   328.135      0.11870E+01  0.25103E-02  0.16906E-04       328.040  
   328.184      0.11280E+01  0.31100E-02  0.25507E-04       328.090  
   328.235      0.10830E+01  0.29006E-02  0.10269E-04       328.140  
   328.284      0.10330E+01  0.32460E-02  0.13707E-04       328.190  
   328.335      0.99700E+00  0.36360E-02  0.17803E-04       328.240  
   328.385      0.96700E+00  0.36091E-02  0.11551E-04       328.290  
   328.434      0.91800E+00  0.38843E-02  0.14186E-04       328.340  
   328.485      0.86900E+00  0.42795E-02  0.15141E-04       328.390  
   328.535      0.83700E+00  0.43633E-02  0.14975E-04       328.440  
   328.584      0.81200E+00  0.47746E-02  0.19896E-04       328.490  
   328.635      0.77500E+00  0.48245E-02  0.19564E-04       328.540  
   328.685      0.73000E+00  0.44602E-02  0.15892E-04       328.590  
   328.734      0.69300E+00  0.46300E-02  0.17173E-04       328.640  
   328.785      0.66000E+00  0.45862E-02  0.16633E-04       328.690  
   328.835      0.63600E+00  0.45717E-02  0.18533E-04       328.740  
   328.885      0.61300E+00  0.45361E-02  0.15526E-04       328.790  
   328.934      0.57900E+00  0.46317E-02  0.20476E-04       328.840  
   328.985      0.55700E+00  0.43320E-02  0.15419E-04       328.890  
   329.035      0.54700E+00  0.43995E-02  0.14224E-04       328.940  
   329.085      0.52700E+00  0.47491E-02  0.20797E-04       328.990  
   329.135      0.50700E+00  0.43135E-02  0.15142E-04       329.040  
   329.185      0.48900E+00  0.46317E-02  0.19620E-04       329.090  
   329.234      0.47100E+00  0.43828E-02  0.16689E-04       329.140  
   329.285      0.45800E+00  0.44735E-02  0.20342E-04       329.190  
   329.335      0.44400E+00  0.40447E-02  0.15702E-04       329.240  
   329.385      0.43100E+00  0.41863E-02  0.19984E-04       329.290  
   329.435      0.42400E+00  0.41139E-02  0.17797E-04       329.340  
   329.485      0.41400E+00  0.37417E-02  0.16512E-04       329.390  
   329.535      0.40800E+00  0.38598E-02  0.18647E-04       329.440  
   329.585      0.41100E+00  0.36731E-02  0.17456E-04       329.490  
   329.635      0.41900E+00  0.35559E-02  0.16725E-04       329.540  
   329.685      0.41200E+00  0.36469E-02  0.19670E-04       329.590  
   329.735      0.41300E+00  0.34965E-02  0.18201E-04       329.640  
   329.785      0.41300E+00  0.34339E-02  0.14586E-04       329.690  
   329.835      0.40000E+00  0.32828E-02  0.15315E-04       329.740  
   329.885      0.40500E+00  0.31866E-02  0.11405E-04       329.790  
   329.935      0.39000E+00  0.33407E-02  0.16432E-04       329.840  
   329.985      0.38700E+00  0.30669E-02  0.12647E-04       329.890  
   330.035      0.38900E+00  0.31564E-02  0.14053E-04       329.940  
   330.085      0.39700E+00  0.31325E-02  0.18309E-04       329.990  
   330.135      0.41100E+00  0.32839E-02  0.22202E-04       330.040  
   330.186      0.44200E+00  0.30212E-02  0.22357E-04       330.090  
   330.235      0.51900E+00  0.27002E-02  0.27642E-04       330.140  
   330.285      0.60700E+00  0.21423E-02  0.21685E-04       330.190  
   330.335      0.64300E+00  0.25151E-02  0.25481E-04       330.240  
   330.385      0.66400E+00  0.24089E-02  0.23645E-04       330.290  
   330.435      0.67300E+00  0.24939E-02  0.21203E-04       330.340  
   330.486      0.66700E+00  0.26132E-02  0.18105E-04       330.390  
   330.535      0.66200E+00  0.27398E-02  0.15390E-04       330.440  
   330.585      0.65100E+00  0.29417E-02  0.19045E-04       330.490  
   330.635      0.63700E+00  0.27003E-02  0.11162E-04       330.540  
   330.686      0.62300E+00  0.27306E-02  0.88311E-05       330.590  
   330.735      0.59200E+00  0.30986E-02  0.17394E-04       330.640  
   330.785      0.57900E+00  0.28838E-02  0.14343E-04       330.690  
   330.836      0.58000E+00  0.28978E-02  0.14370E-04       330.740  
   330.885      0.56900E+00  0.30129E-02  0.21787E-04       330.790  
   330.935      0.59600E+00  0.26607E-02  0.20999E-04       330.840  
   330.986      0.69200E+00  0.22096E-02  0.22100E-04       330.890  
   331.035      0.74200E+00  0.15735E-02  0.16127E-04       330.940  
   331.085      0.79000E+00  0.19249E-02  0.13625E-04       330.990  
   331.136      0.80000E+00  0.20107E-02  0.14173E-04       331.040  
   331.185      0.78200E+00  0.22257E-02  0.18323E-04       331.090  
   331.236      0.76100E+00  0.27434E-02  0.18965E-04       331.140  
   331.285      0.74500E+00  0.25099E-02  0.10079E-04       331.190  
   331.335      0.72100E+00  0.27748E-02  0.16249E-04       331.240  
   331.386      0.68500E+00  0.26145E-02  0.13506E-04       331.290  
   331.435      0.65600E+00  0.28970E-02  0.11798E-04       331.340  
   331.486      0.62500E+00  0.26328E-02  0.56969E-05       331.390  
   331.535      0.57900E+00  0.27407E-02  0.98011E-05       331.440  
   331.586      0.56200E+00  0.29643E-02  0.10005E-04       331.490  
   331.635      0.54400E+00  0.29183E-02  0.93937E-05       331.540  
   331.686      0.51200E+00  0.33111E-02  0.15057E-04       331.590  
   331.735      0.49300E+00  0.29774E-02  0.73288E-05       331.640  
   331.785      0.46300E+00  0.34130E-02  0.15252E-04       331.690  
   331.836      0.44800E+00  0.30929E-02  0.11485E-04       331.740  
   331.885      0.42900E+00  0.33727E-02  0.15446E-04       331.790  
   331.936      0.40200E+00  0.31730E-02  0.13786E-04       331.840  
   331.985      0.38600E+00  0.31247E-02  0.13278E-04       331.890  
   332.035      0.36700E+00  0.29112E-02  0.10603E-04       331.940  
   332.086      0.35200E+00  0.28085E-02  0.11138E-04       331.990  
   332.135      0.33600E+00  0.29985E-02  0.13808E-04       332.040  
   332.185      0.32000E+00  0.27410E-02  0.11716E-04       332.090  
   332.236      0.30400E+00  0.26942E-02  0.11057E-04       332.140  
   332.286      0.29600E+00  0.27962E-02  0.13167E-04       332.190  
   332.335      0.29000E+00  0.26342E-02  0.10716E-04       332.240  
   332.386      0.27500E+00  0.27775E-02  0.13239E-04       332.290  
   332.435      0.26700E+00  0.26844E-02  0.12785E-04       332.339  
   332.484      0.25600E+00  0.28948E-02  0.16802E-04       332.389  
   332.534      0.25100E+00  0.26712E-02  0.14777E-04       332.439  
   332.585      0.25600E+00  0.24386E-02  0.86420E-05       332.489  
   332.635      0.24500E+00  0.23543E-02  0.10633E-04       332.539  
   332.685      0.24500E+00  0.24063E-02  0.11655E-04       332.589  
   332.734      0.23800E+00  0.24199E-02  0.14291E-04       332.639  
   332.784      0.24100E+00  0.24479E-02  0.15890E-04       332.689  
   332.835      0.24600E+00  0.24310E-02  0.16835E-04       332.739  
   332.885      0.26000E+00  0.22106E-02  0.13184E-04       332.789  
   332.935      0.25800E+00  0.22514E-02  0.18520E-04       332.839  
   332.985      0.27400E+00  0.19992E-02  0.12799E-04       332.889  
   333.035      0.27900E+00  0.21200E-02  0.14301E-04       332.939  
   333.085      0.28500E+00  0.22859E-02  0.16131E-04       332.989  
   333.135      0.29100E+00  0.23868E-02  0.15876E-04       333.039  
   333.185      0.30700E+00  0.25459E-02  0.14781E-04       333.089  
   333.234      0.30500E+00  0.27094E-02  0.16221E-04       333.139  
   333.284      0.31000E+00  0.27437E-02  0.15338E-04       333.189  
   333.334      0.30900E+00  0.26931E-02  0.14648E-04       333.239  
   333.384      0.31100E+00  0.25349E-02  0.13592E-04       333.289  
   333.434      0.31300E+00  0.25765E-02  0.16071E-04       333.339  
   333.484      0.32700E+00  0.24476E-02  0.16622E-04       333.389  
   333.535      0.35900E+00  0.22825E-02  0.17447E-04       333.439  
   333.585      0.40100E+00  0.20490E-02  0.18764E-04       333.489  
   333.635      0.46400E+00  0.15540E-02  0.16877E-04       333.539  
   333.685      0.51100E+00  0.12563E-02  0.15070E-04       333.589  
   333.735      0.53500E+00  0.14236E-02  0.14748E-04       333.639  
   333.785      0.54500E+00  0.12881E-02  0.87409E-05       333.689  
   333.835      0.53900E+00  0.18496E-02  0.17287E-04       333.739  
   333.885      0.53500E+00  0.19086E-02  0.15141E-04       333.789  
   333.936      0.52800E+00  0.22186E-02  0.15339E-04       333.839  
   333.985      0.51000E+00  0.21928E-02  0.10730E-04       333.889  
   334.035      0.48800E+00  0.22662E-02  0.10826E-04       333.939  
   334.085      0.46800E+00  0.24557E-02  0.14070E-04       333.989  
   334.135      0.44700E+00  0.24968E-02  0.13350E-04       334.039  
   334.186      0.43100E+00  0.23834E-02  0.87736E-05       334.089  
   334.235      0.39600E+00  0.26237E-02  0.15705E-04       334.139  
   334.285      0.38000E+00  0.26231E-02  0.13251E-04       334.189  
   334.335      0.35900E+00  0.23437E-02  0.11864E-04       334.239  
   334.386      0.34100E+00  0.26484E-02  0.16348E-04       334.289  
   334.435      0.32800E+00  0.23972E-02  0.12037E-04       334.339  
   334.485      0.31500E+00  0.25341E-02  0.13598E-04       334.389  
   334.535      0.30300E+00  0.22414E-02  0.91063E-05       334.439  
   334.585      0.29300E+00  0.23741E-02  0.12864E-04       334.489  
   334.635      0.29000E+00  0.23683E-02  0.12877E-04       334.539  
   334.685      0.27600E+00  0.22452E-02  0.11642E-04       334.589  
   334.735      0.27000E+00  0.23311E-02  0.12458E-04       334.639  
   334.785      0.26000E+00  0.22009E-02  0.10712E-04       334.689  
   334.836      0.24800E+00  0.22240E-02  0.11419E-04       334.739  
   334.885      0.23500E+00  0.19890E-02  0.94164E-05       334.789  
   334.935      0.22100E+00  0.19790E-02  0.10601E-04       334.839  
   334.985      0.21700E+00  0.18704E-02  0.68192E-05       334.889  
   335.035      0.19900E+00  0.17886E-02  0.82452E-05       334.939  
   335.086      0.19200E+00  0.20000E-02  0.10035E-04       334.989  
   335.135      0.18100E+00  0.20689E-02  0.13370E-04       335.039  
   335.186      0.17200E+00  0.19760E-02  0.13063E-04       335.090  
   335.236      0.15900E+00  0.18652E-02  0.13651E-04       335.140  
   335.286      0.15900E+00  0.20206E-02  0.13499E-04       335.190  
   335.336      0.16000E+00  0.19047E-02  0.11232E-04       335.240  
   335.386      0.15500E+00  0.19308E-02  0.11821E-04       335.290  
   335.437      0.14800E+00  0.18110E-02  0.11225E-04       335.340  
   335.486      0.14800E+00  0.19255E-02  0.11545E-04       335.390  
   335.537      0.14700E+00  0.18302E-02  0.10320E-04       335.440  
   335.586      0.14800E+00  0.17761E-02  0.91172E-05       335.490  
   335.637      0.14400E+00  0.16844E-02  0.10385E-04       335.540  
   335.686      0.14700E+00  0.17757E-02  0.10138E-04       335.590  
   335.736      0.14200E+00  0.16812E-02  0.93544E-05       335.640  
   335.786      0.13800E+00  0.15272E-02  0.73560E-05       335.689  
   335.835      0.13700E+00  0.18065E-02  0.12247E-04       335.739  
   335.885      0.13300E+00  0.16655E-02  0.10546E-04       335.789  
   335.936      0.12700E+00  0.17324E-02  0.12306E-04       335.839  
   335.985      0.13700E+00  0.18554E-02  0.12416E-04       335.889  
   336.035      0.13200E+00  0.17950E-02  0.13125E-04       335.939  
   336.086      0.13900E+00  0.17768E-02  0.11812E-04       335.989  
   336.136      0.13800E+00  0.19995E-02  0.15779E-04       336.039  
   336.185      0.15500E+00  0.20382E-02  0.13106E-04       336.089  
   336.235      0.17000E+00  0.19786E-02  0.11338E-04       336.139  
   336.286      0.18300E+00  0.20945E-02  0.12056E-04       336.189  
   336.336      0.19100E+00  0.19940E-02  0.10346E-04       336.239  
   336.385      0.20800E+00  0.16773E-02  0.59513E-05       336.289  
   336.435      0.22100E+00  0.16125E-02  0.87982E-05       336.339  
   336.486      0.23400E+00  0.16260E-02  0.10649E-04       336.389  
   336.536      0.23500E+00  0.17874E-02  0.13239E-04       336.439  
   336.586      0.22800E+00  0.16793E-02  0.13607E-04       336.489  
   336.636      0.23100E+00  0.15666E-02  0.93783E-05       336.539  
   336.686      0.21900E+00  0.17264E-02  0.15332E-04       336.589  
   336.735      0.21400E+00  0.15819E-02  0.12948E-04       336.639  
   336.785      0.21100E+00  0.17505E-02  0.14375E-04       336.689  
   336.835      0.21500E+00  0.17886E-02  0.12407E-04       336.739  
   336.885      0.21100E+00  0.20133E-02  0.17271E-04       336.789  
   336.936      0.21700E+00  0.19698E-02  0.15302E-04       336.839  
   336.986      0.22600E+00  0.19978E-02  0.15874E-04       336.889  
   337.036      0.25000E+00  0.16990E-02  0.80434E-05       336.939  
   337.086      0.25600E+00  0.18451E-02  0.13341E-04       336.989  
   337.136      0.28900E+00  0.19604E-02  0.16797E-04       337.039  
   337.186      0.35400E+00  0.12938E-02 -0.28827E-05       337.089  
   337.236      0.36100E+00  0.11072E-02  0.52774E-05       337.139  
   337.286      0.35900E+00  0.10330E-02  0.10437E-04       337.190  
   337.336      0.35600E+00  0.10423E-02  0.11427E-04       337.239  
   337.385      0.34800E+00  0.10780E-02  0.13240E-04       337.289  
   337.435      0.33000E+00  0.11816E-02  0.15143E-04       337.339  
   337.486      0.31800E+00  0.12985E-02  0.15745E-04       337.389  
   337.536      0.30500E+00  0.13385E-02  0.14258E-04       337.439  
   337.586      0.29700E+00  0.13392E-02  0.12637E-04       337.489  
   337.636      0.27900E+00  0.14975E-02  0.16023E-04       337.539  
   337.686      0.27300E+00  0.13045E-02  0.75215E-05       337.589  
   337.736      0.25000E+00  0.15471E-02  0.15557E-04       337.639  
   337.786      0.24200E+00  0.13803E-02  0.86931E-05       337.689  
   337.836      0.22200E+00  0.15519E-02  0.16081E-04       337.739  
   337.886      0.21100E+00  0.14311E-02  0.13046E-04       337.789  
   337.936      0.20600E+00  0.14098E-02  0.10344E-04       337.839  
   337.986      0.19100E+00  0.13506E-02  0.94679E-05       337.889  
   338.037      0.18700E+00  0.13154E-02  0.68406E-05       337.939  
   338.086      0.17800E+00  0.12030E-02  0.69153E-05       337.989  
   338.136      0.16400E+00  0.13069E-02  0.93875E-05       338.039  
   338.178      0.15800E+00  0.14782E-02  0.98424E-05       338.081  
   338.229      0.14700E+00  0.13959E-02  0.99373E-05       338.131  
   338.278      0.13500E+00  0.13703E-02  0.12307E-04       338.181  
   338.328      0.13200E+00  0.13124E-02  0.10120E-04       338.231  
   338.379      0.12300E+00  0.13848E-02  0.11809E-04       338.281  
   338.428      0.12800E+00  0.13625E-02  0.86811E-05       338.331  
   338.478      0.11400E+00  0.12307E-02  0.76543E-05       338.381  
   338.529      0.10500E+00  0.15846E-02  0.15442E-04       338.431  
   338.578      0.11000E+00  0.12580E-02  0.87863E-05       338.481  
   338.628      0.10000E+00  0.14547E-02  0.12598E-04       338.531  
   338.678      0.11400E+00  0.13608E-02  0.78215E-05       338.581  
   338.728      0.11100E+00  0.13914E-02  0.81265E-05       338.631  
   338.779      0.98000E-01  0.13744E-02  0.10822E-04       338.681  
   338.828      0.10300E+00  0.14159E-02  0.84957E-05       338.731  
   338.879      0.10400E+00  0.15436E-02  0.94292E-05       338.781  
   338.928      0.94000E-01  0.15201E-02  0.13216E-04       338.831  
   338.978      0.97000E-01  0.14962E-02  0.10853E-04       338.881  
   339.028      0.98000E-01  0.14080E-02  0.89174E-05       338.931  
   339.078      0.96000E-01  0.15768E-02  0.13117E-04       338.981  
   339.128      0.94000E-01  0.14678E-02  0.11924E-04       339.031  
   339.178      0.95000E-01  0.13827E-02  0.92398E-05       339.081  
   339.228      0.10000E+00  0.13471E-02  0.62129E-05       339.131  
   339.279      0.95000E-01  0.14969E-02  0.12223E-04       339.181  
   339.328      0.10000E+00  0.15754E-02  0.11759E-04       339.231  
   339.379      0.11200E+00  0.16007E-02  0.99834E-05       339.281  
   339.428      0.11100E+00  0.15837E-02  0.11222E-04       339.331  
   339.478      0.11500E+00  0.17281E-02  0.11652E-04       339.381  
   339.529      0.11600E+00  0.18408E-02  0.13946E-04       339.431  
   339.578      0.11600E+00  0.18158E-02  0.14032E-04       339.481  
   339.629      0.11100E+00  0.19049E-02  0.17002E-04       339.531  
   339.679      0.11000E+00  0.18112E-02  0.15027E-04       339.581  
   339.728      0.11600E+00  0.16353E-02  0.10268E-04       339.631  
   339.779      0.11400E+00  0.16606E-02  0.10839E-04       339.681  
   339.829      0.11700E+00  0.14918E-02  0.91207E-05       339.731  
   339.878      0.11800E+00  0.15060E-02  0.10707E-04       339.781  
   339.929      0.12100E+00  0.17412E-02  0.13506E-04       339.831  
   339.979      0.14500E+00  0.13206E-02  0.44687E-05       339.881  
   340.028      0.16000E+00  0.10836E-02  0.23177E-05       339.931  
   340.078      0.18100E+00  0.11692E-02  0.39170E-05       339.981  
   340.028      0.16000E+00  0.10836E-02  0.23177E-05       339.931  
   340.078      0.18100E+00  0.11692E-02  0.39170E-05       339.981  
   340.128      0.00000E+00  0.00000E+00  0.00000E+00       339.982  
