# retrieved from http://www.atsr.rl.ac.uk/documentation/docs/filterfunctions/atsr-2/v555/index.shtml
# ATSR-2 Flight Model FPA 0.555um
#
# Wavelength Normalised
# (um) Response
525.000000 0.00005
525.500000 0.00029
526.000000 0.00032
526.500000 0.00035
527.000000 0.00038
527.500000 0.00031
528.000000 0.00034
528.500000 0.00031
529.000000 0.00031
529.500000 0.00031
530.000000 0.00027
530.500000 0.00001
531.000000 0.00001
531.500000 0.00014
532.000000 0.00013
532.500000 0.00023
533.000000 0.00031
533.500000 0.00040
534.000000 0.00060
534.500000 0.00087
535.000000 0.00115
535.500000 0.00156
536.000000 0.00208
536.500000 0.00282
537.000000 0.00390
537.500000 0.00553
538.000000 0.00748
538.500000 0.01095
539.000000 0.01612
539.500000 0.02290
540.000000 0.03563
540.500000 0.05632
541.000000 0.08317
541.500000 0.13346
542.000000 0.20556
542.500000 0.28798
543.000000 0.40223
543.500000 0.51883
544.000000 0.59731
544.500000 0.67131
545.000000 0.71680
545.500000 0.75143
546.000000 0.78518
546.500000 0.82516
547.000000 0.85011
547.500000 0.87792
548.000000 0.87401
548.500000 0.84562
549.000000 0.76329
549.500000 0.68256
550.000000 0.65863
550.500000 0.69862
551.000000 0.74144
551.500000 0.76853
552.000000 0.78243
552.500000 0.79806
553.000000 0.80722
553.500000 0.82982
554.000000 0.84915
554.500000 0.87230
555.000000 0.89286
555.500000 0.91572
556.000000 0.92435
556.500000 0.93860
557.000000 0.94248
557.500000 0.95070
558.000000 0.95546
558.500000 0.96931
559.000000 0.97463
559.500000 0.99031
560.000000 0.99529
560.500000 1.00000
561.000000 0.98859
561.500000 0.96963
562.000000 0.93398
562.500000 0.88519
563.000000 0.81716
563.500000 0.75518
564.000000 0.66576
564.500000 0.57066
565.000000 0.48041
565.500000 0.37086
566.000000 0.26640
566.500000 0.19155
567.000000 0.12239
567.500000 0.07704
568.000000 0.05166
568.500000 0.03259
569.000000 0.02085
569.500000 0.01459
570.000000 0.00945
570.500000 0.00626
571.000000 0.00417
571.500000 0.00246
572.000000 0.00134
572.500000 0.00090
573.000000 0.00077
573.500000 0.00069
574.000000 0.00063
574.500000 0.00049
575.000000 0.00041
575.500000 0.00038
576.000000 0.00030
576.500000 0.00025
577.000000 0.00021
577.500000 0.00015
578.000000 0.00013
578.500000 0.00011
579.000000 0.00013
579.500000 0.00011
580.000000 0.00007
580.500000 0.00006
581.000000 0.00004
581.500000 0.00011
582.000000 0.00001
582.500000 0.00001
583.000000 0.00004
583.500000 0.00001
584.000000 0.00004
584.500000 0.00001
585.000000 0.00002
