# retrieved from http://www.atsr.rl.ac.uk/documentation/docs/filterfunctions/atsr-2/v870/index.shtml
# ATSR-2 Flight Model FPA 0.87um
#
# Wavelength Normalised
# (um) Response
835.000000 0.00016
835.500000 0.00009
836.000000 0.00012
836.500000 0.00016
837.000000 0.00021
837.500000 0.00025
838.000000 0.00030
838.500000 0.00036
839.000000 0.00045
839.500000 0.00056
840.000000 0.00067
840.500000 0.00090
841.000000 0.00107
841.500000 0.00129
842.000000 0.00158
842.500000 0.00189
843.000000 0.00233
843.500000 0.00288
844.000000 0.00351
844.500000 0.00437
845.000000 0.00548
845.500000 0.00670
846.000000 0.00861
846.500000 0.01117
847.000000 0.01393
847.500000 0.01834
848.000000 0.02418
848.500000 0.03094
849.000000 0.04180
849.500000 0.05680
850.000000 0.07392
850.500000 0.10232
851.000000 0.14146
851.500000 0.18700
852.000000 0.26077
852.500000 0.35842
853.000000 0.45688
853.500000 0.58996
854.000000 0.71890
854.500000 0.81722
855.000000 0.90690
855.500000 0.96475
856.000000 0.98816
856.500000 1.00000
857.000000 0.99660
857.500000 0.99133
858.000000 0.97975
858.500000 0.97107
859.000000 0.96126
859.500000 0.95434
860.000000 0.94577
860.500000 0.94158
861.000000 0.93505
861.500000 0.93183
862.000000 0.92689
862.500000 0.92463
863.000000 0.91983
863.500000 0.91850
864.000000 0.91350
864.500000 0.91176
865.000000 0.90526
865.500000 0.90078
866.000000 0.89163
866.500000 0.88361
867.000000 0.87089
867.500000 0.85779
868.000000 0.84362
868.500000 0.82944
869.000000 0.81246
869.500000 0.80246
870.000000 0.78938
870.500000 0.78275
871.000000 0.77654
871.500000 0.77696
872.000000 0.77592
872.500000 0.77842
873.000000 0.77292
873.500000 0.75680
874.000000 0.72530
874.500000 0.66230
875.000000 0.57362
875.500000 0.48721
876.000000 0.37919
876.500000 0.28490
877.000000 0.21813
877.500000 0.15699
878.000000 0.11311
878.500000 0.08589
879.000000 0.06205
879.500000 0.04569
880.000000 0.03542
880.500000 0.02648
881.000000 0.02010
881.500000 0.01602
882.000000 0.01229
882.500000 0.00957
883.000000 0.00777
883.500000 0.00619
884.000000 0.00497
884.500000 0.00416
885.000000 0.00337
885.500000 0.00277
886.000000 0.00235
886.500000 0.00196
887.000000 0.00165
887.500000 0.00140
888.000000 0.00118
888.500000 0.00099
889.000000 0.00088
889.500000 0.00074
890.000000 0.00065
890.500000 0.00056
891.000000 0.00051
891.500000 0.00042
892.000000 0.00038
892.500000 0.00033
893.000000 0.00030
893.500000 0.00028
894.000000 0.00023
894.500000 0.00021
895.000000 0.00017
