# retrieved from http://www.atsr.rl.ac.uk/documentation/docs/filterfunctions/atsr-2/ir12/index.shtml
# ATSR-2 Flight Model FPA 12um
#
# Wavelength Normalised
# (um) Response
10978.300000 0.00000
10987.675000 0.00000
10997.049000 0.00000
11006.424000 0.00000
11015.799000 0.00000
11025.173000 0.00000
11034.548000 0.00000
11043.922000 0.00000
11053.297000 0.00000
11062.672000 0.00000
11072.046000 0.00000
11081.421000 0.00000
11090.796000 0.00000
11100.170000 0.00100
11109.545000 0.00100
11118.919000 0.00100
11128.294000 0.00100
11137.669000 0.00100
11147.043000 0.00200
11156.418000 0.00200
11165.792000 0.00200
11175.167000 0.00300
11184.542000 0.00400
11193.916000 0.00400
11203.291000 0.00500
11212.666000 0.00600
11222.040000 0.00600
11231.415000 0.00700
11240.789000 0.00800
11250.164000 0.00899
11259.539000 0.01101
11268.913000 0.01300
11278.288000 0.01500
11287.663000 0.01699
11297.037000 0.02001
11306.412000 0.02300
11315.786000 0.02600
11325.161000 0.02998
11334.536000 0.03502
11343.910000 0.03900
11353.285000 0.04399
11362.659000 0.05197
11372.034000 0.05803
11381.409000 0.06601
11390.783000 0.07299
11400.158000 0.08197
11409.533000 0.08803
11418.907000 0.10001
11428.282000 0.10998
11437.656000 0.12393
11447.031000 0.13704
11456.406000 0.15001
11465.780000 0.16397
11475.155000 0.17792
11484.529000 0.20008
11493.904000 0.22601
11503.279000 0.24096
11512.653000 0.26487
11522.028000 0.28604
11531.403000 0.29801
11540.777000 0.32992
11550.152000 0.35292
11559.526000 0.36806
11568.901000 0.39900
11578.276000 0.42991
11587.650000 0.46486
11597.025000 0.48607
11606.400000 0.51400
11615.774000 0.53090
11625.149000 0.57979
11634.523000 0.60005
11643.898000 0.62699
11653.273000 0.65291
11662.647000 0.68582
11672.022000 0.72413
11681.396000 0.77100
11690.771000 0.73901
11700.146000 0.77678
11709.520000 0.79102
11718.895000 0.81498
11728.270000 0.86185
11737.644000 0.88802
11747.019000 0.87100
11756.393000 0.88599
11765.768000 0.88891
11775.143000 0.92792
11784.517000 0.91400
11793.892000 0.93599
11803.267000 0.93105
11812.641000 0.92988
11822.016000 0.96607
11831.390000 0.99200
11840.765000 0.97505
11850.140000 0.97301
11859.514000 0.96599
11868.889000 0.96899
11878.263000 0.97796
11887.638000 0.98304
11897.013000 0.97701
11906.387000 0.99699
11915.762000 0.98703
11925.137000 0.99194
11934.511000 0.99901
11943.886000 1.00002
11953.260000 0.98104
11962.635000 0.98298
11972.010000 0.96696
11981.384000 0.93197
11990.759000 0.97697
12000.134000 0.93428
12009.508000 0.93702
12018.883000 0.96596
12028.257000 0.96709
12037.632000 0.94308
12047.007000 0.94600
12056.381000 0.93701
12065.756000 0.94298
12075.130000 0.94200
12084.505000 0.93899
12093.880000 0.91604
12103.254000 0.90803
12112.629000 0.91082
12122.004000 0.94401
12131.378000 0.93008
12140.753000 0.90105
12150.127000 0.90598
12159.502000 0.90700
12168.877000 0.93000
12178.251000 0.91002
12187.626000 0.92499
12197.001000 0.89300
12206.375000 0.85999
12215.750000 0.89285
12225.124000 0.90095
12234.499000 0.91100
12243.874000 0.89308
12253.248000 0.87101
12262.623000 0.88490
12271.997000 0.87901
12281.372000 0.84810
12290.747000 0.83489
12300.121000 0.86787
12309.496000 0.85002
12318.871000 0.81806
12328.245000 0.82381
12337.620000 0.86282
12346.994000 0.84803
12356.369000 0.79019
12365.744000 0.75210
12375.118000 0.74512
12384.493000 0.72401
12393.867000 0.72498
12403.242000 0.72604
12412.617000 0.71604
12421.991000 0.70204
12431.366000 0.64112
12440.741000 0.64005
12450.115000 0.61024
12459.490000 0.59801
12468.864000 0.57613
12478.239000 0.54409
12487.614000 0.54308
12496.988000 0.51306
12506.363000 0.46714
12515.738000 0.44611
12525.112000 0.42620
12534.487000 0.40603
12543.861000 0.38314
12553.236000 0.34618
12562.611000 0.33993
12571.985000 0.34402
12581.360000 0.31913
12590.734000 0.29316
12600.109000 0.27801
12609.484000 0.28201
12618.858000 0.25813
12628.233000 0.23514
12637.608000 0.22203
12646.982000 0.22202
12656.357000 0.20309
12665.731000 0.18714
12675.106000 0.17100
12684.481000 0.18000
12693.855000 0.16110
12703.230000 0.14807
12712.605000 0.14003
12721.979000 0.14001
12731.354000 0.13203
12740.728000 0.12806
12750.103000 0.11318
12759.478000 0.10101
12768.852000 0.10202
12778.227000 0.09305
12787.601000 0.09105
12796.976000 0.08302
12806.351000 0.08199
12815.725000 0.08304
12825.100000 0.07407
12834.475000 0.07002
12843.849000 0.06104
12853.224000 0.05802
12862.598000 0.05403
12871.973000 0.05300
12881.348000 0.05201
12890.722000 0.05003
12900.097000 0.04605
12909.472000 0.04102
12918.846000 0.03502
12928.221000 0.03500
12937.595000 0.03303
12946.970000 0.03100
12956.345000 0.03101
12965.719000 0.02802
12975.094000 0.02703
12984.468000 0.02301
12993.843000 0.02199
13003.218000 0.02301
13012.592000 0.02003
13021.967000 0.01901
13031.342000 0.01700
13040.716000 0.01800
13050.091000 0.01604
13059.465000 0.01400
13068.840000 0.01500
13078.215000 0.01301
13087.589000 0.01301
13096.964000 0.01101
13106.339000 0.01000
13115.713000 0.01101
13125.088000 0.00902
13134.462000 0.00900
13143.837000 0.00801
13153.212000 0.00700
13162.586000 0.00701
13171.961000 0.00600
13181.335000 0.00600
13190.710000 0.00601
13200.085000 0.00501
13209.459000 0.00500
13218.834000 0.00400
13228.209000 0.00500
13237.583000 0.00401
13246.958000 0.00400
13256.332000 0.00301
13265.707000 0.00101
13275.082000 0.00197
13284.456000 0.00400
13293.831000 0.00302
13303.205000 0.00101
13312.580000 0.00098
13321.955000 0.00300
13331.329000 0.00201
13340.704000 0.00100
13350.079000 0.00100
13359.453000 0.00001
